A_X[mg]	A_Y[mg]	A_Z[mg]	G_X[dps]	G_Y[dps]	G_Z[dps]	
375.455017	262.239014	1001.619995	0.739375	18.427500	-4.983125
386.007996	280.173004	958.614990	7.328125	15.610000	-1.373750
375.942993	281.575989	971.486023	6.426875	16.056250	-0.542500
343.552002	305.549011	941.229980	6.269375	7.555625	-0.634375
376.369995	292.190002	974.169983	-2.419375	2.660000	-4.676875
323.971008	336.720001	1137.467041	0.901250	2.835000	-4.738125
286.761017	448.777008	1464.854004	1.006250	-3.036250	5.700625
297.131012	515.388977	1894.537964	11.698750	3.753750	9.384375
213.561005	603.289978	1937.359985	2.830625	13.676250	12.963125
326.777008	575.291016	1910.703003	2.410625	23.734375	6.986875
407.296997	508.069000	1703.546997	-8.995000	45.053749	-3.001250
469.700012	470.981018	1517.557983	-26.420626	69.741875	-19.565001
512.033997	388.265015	1279.474976	-29.203125	82.985001	-33.678749
432.856018	349.957001	1070.000977	-30.922501	82.744377	-38.648750
254.186996	300.364014	914.877991	-27.129375	95.729378	-41.269375
258.579010	252.296005	775.798035	-16.826250	99.330002	-51.795624
67.527000	150.242996	710.406006	-6.129375	76.470627	-40.543125
163.662994	164.944000	612.806030	1.513750	32.025002	-22.596874
46.421001	164.944000	463.050995	11.186875	35.774376	-25.361876
-46.360001	126.209000	558.393982	2.988125	59.495625	-28.284374
-118.523003	106.750000	541.314026	-9.607500	73.141251	-20.658751
-289.627991	67.771004	621.041016	-11.099375	50.325626	-3.320625
-242.779999	115.534004	667.583984	-10.110625	15.719375	-0.083125
-334.768005	89.487000	792.755981	-18.300625	1.386875	1.513750
-287.675995	171.227005	850.096008	-15.745625	-5.337500	-5.398750
-271.084015	96.075005	913.169983	-16.870001	-3.272500	-3.486875
-304.511993	142.374008	987.223999	-26.718124	-1.863750	-2.765000
-280.295013	145.850998	1025.837036	-23.305626	-5.753125	-3.836875
-296.825989	111.630005	1054.323975	-20.378750	-8.675625	-0.813750
-256.748993	106.750000	1042.062988	-21.000000	-6.190625	-0.809375
-262.848999	59.535999	1027.118042	-19.923750	-4.462500	4.541250
-291.153015	84.729004	1061.704956	-16.957500	0.896875	8.837500
-278.160004	54.411999	1067.438965	-18.917500	3.110625	3.797500
-291.580017	52.216000	1077.992065	-14.809375	1.513750	3.696875
-292.433990	63.074001	1106.296021	-13.536250	-3.469375	3.784375
-253.699005	36.050999	1082.445068	-8.662500	2.161250	1.785000
-304.268005	49.532001	1071.708984	-4.830000	3.320625	1.316875
-240.156998	48.922001	1013.637024	-6.300000	6.995625	1.373750
223.138000	63.013000	1088.422974	5.735625	7.161875	0.630000
212.585007	57.522999	1093.425049	5.346250	5.893125	-0.297500
210.328003	71.613998	1097.695068	2.108750	3.101875	-0.901250
205.813995	61.549000	1079.212036	2.113125	1.522500	-1.255625
214.781006	61.122002	1089.826050	3.259375	0.682500	-1.316875
203.557007	74.176003	1094.279053	3.373125	2.305625	-0.192500
151.462997	33.367001	1368.962036	5.302500	-3.644375	3.946250
135.419998	90.524002	1540.250000	3.071250	-5.324375	6.680625
58.681999	-123.037003	1998.604004	-2.996875	-1.645000	10.473750
70.150002	16.714001	1970.117065	18.589375	-16.467501	19.661249
214.781006	73.383003	1658.223999	20.610624	-27.593124	14.118125
312.259003	204.533005	1584.230957	23.021250	6.615000	1.544375
280.234009	182.817001	1222.683960	3.753750	43.198750	-8.846250
321.592010	132.858002	1265.505981	-29.404375	69.601875	-12.639375
285.053009	169.031006	1092.631958	-43.754375	85.128754	-17.058125
158.477997	81.191002	1106.417969	-44.191875	83.650002	-16.108749
182.328995	107.360001	1087.874023	-37.021252	63.735001	-10.845625
171.593002	86.375999	928.298035	-35.866249	68.438126	-4.532500
11.407001	-117.363998	921.770996	-30.485001	81.760002	1.846250
133.346008	63.195999	642.330017	-18.252501	54.407501	-6.339375
22.326000	-90.158005	716.505981	-21.280001	48.641251	-10.268125
-226.676010	-56.791000	674.965027	2.878750	58.957500	2.353750
-82.654999	-24.156000	686.494019	11.143125	34.877499	4.396875
-237.290009	-17.507000	681.247986	14.485625	40.131874	3.705625
-224.479996	-54.351002	678.686035	20.461876	26.411875	3.075625
-264.923004	12.505000	722.484009	12.534375	10.801875	1.408750
-320.433014	-17.446001	801.540039	2.506875	14.892500	2.655625
-359.472992	-28.365000	833.747986	3.237500	2.301250	1.868125
-387.532990	-24.095001	934.703003	3.963750	-5.131875	8.570625
-336.903015	20.374001	958.249023	-3.631250	-3.933125	2.848125
-347.761017	-45.018002	982.283020	-1.933750	-6.851250	1.435000
-321.347992	42.821999	1018.273010	-4.484375	-5.206250	3.898125
-333.243011	-36.844002	1048.102051	-4.786250	-7.669375	2.139375
-286.944000	-15.799000	1031.265991	-3.158750	-10.412500	3.198125
-312.381012	-25.925001	1099.281006	0.621250	-7.616875	2.905000
-287.981018	-23.790001	1071.037964	-2.030000	-6.094375	0.196875
-277.794006	-34.831001	1100.562012	0.109375	-9.436875	-0.770000
-257.725006	1.525000	1101.781982	-2.625000	-4.497500	-2.187500
197.152008	-2.806000	1193.098999	1.995000	7.787500	-6.081250
172.569000	-5.246000	1137.954956	2.786875	10.040625	-5.683125
167.445007	14.091001	1116.971069	3.972500	7.341250	-4.493125
198.372009	43.310001	1120.875000	4.987500	7.730625	-5.114375
176.473007	29.158001	1128.682983	2.559375	7.485625	-3.723125
186.904007	34.098999	1197.003052	4.528125	3.298750	-2.012500
153.841995	42.517002	1249.463013	4.195625	9.148125	-0.730625
127.063004	15.921000	1396.351074	1.216250	11.375000	1.981875
117.425003	29.280001	1408.002075	-3.771250	18.213125	4.200000
63.135002	-20.374001	1453.752075	-8.636250	19.630625	4.270000
76.615997	-5.002000	1466.562012	-5.429375	9.288125	7.888125
119.559998	-25.375999	1505.175049	7.581875	7.603750	10.880625
132.369995	57.767002	1411.052002	18.418751	8.535625	4.825625
116.265999	107.909004	1335.534058	15.185625	18.790625	-0.739375
116.998001	105.529999	1325.957031	0.993125	31.268126	2.590000
120.474998	109.495003	1208.471069	-14.568750	46.536877	-4.987500
153.598007	59.779999	1270.264038	-29.351875	62.531876	-11.291875
75.274002	4.453000	1215.669067	-33.740002	67.195625	-9.047500
62.525002	7.747000	1194.318970	-25.816875	61.223751	-12.477500
-13.542000	18.666000	978.195984	-16.401875	48.483749	-12.845000
-163.541000	22.753000	958.798035	-10.583125	48.860001	-4.585000
-0.183000	63.928001	884.195007	-10.583125	55.173126	-10.517500
-211.852997	-40.443001	948.916016	-10.994375	55.173126	-10.517500
-211.852997	-40.443001	948.916016	-9.738750	61.070625	-4.112500
-151.158005	-13.420000	942.877014	-12.499375	42.568748	3.158750
-201.544006	-49.410000	903.958984	-25.042500	38.381874	-0.253750
-239.181000	-44.957001	983.807983	-23.240000	12.250000	-2.611875
-211.304001	-22.387001	854.488037	-31.950624	1.500625	-3.005625
-263.032013	-52.094002	978.195984	-30.428125	6.650000	-1.876875
-271.023010	-95.465004	892.369019	-20.951876	-0.306250	3.425625
-225.089996	-106.567001	934.885986	-10.758125	0.236250	3.705625
-218.441010	-96.563004	876.630981	-9.874375	12.123125	-1.701875
-226.737000	-135.968994	865.041016	-2.695000	18.690001	-1.334375
-263.398010	-106.872002	862.906006	-4.357500	14.039375	3.714375
-264.862000	-105.408005	866.992981	-4.108125	10.771250	6.094375
-313.417999	-144.875000	883.523987	-5.359375	6.396250	1.824375
-355.446991	-134.444000	861.869019	-5.044375	5.928125	0.166250
-377.773010	-156.587006	935.130005	-2.677500	3.285625	0.730625
218.074997	289.261993	1179.739990	16.848125	-33.005001	-1.435000
195.749008	325.313019	1233.237061	16.791250	-29.946875	2.835000
286.089996	344.101013	1175.409058	13.378750	-28.126875	4.051250
242.841003	318.237000	1146.860962	13.895000	-16.362499	5.258750
256.078003	342.759003	1127.280029	9.038750	-4.173750	1.203125
292.006989	335.927002	1048.712036	5.556250	-0.809375	-2.537500
228.872009	294.080994	1097.938965	1.439375	11.545625	-9.603125
253.943008	319.457001	1120.020996	8.697500	10.815000	-3.911250
176.046005	351.970001	1293.505005	13.728750	3.771250	5.276250
270.108002	440.420013	1503.588989	14.883750	6.943125	4.055625
180.376999	482.998016	1489.254028	5.582500	13.877500	13.934375
192.150009	484.462006	1562.088013	-8.168125	19.044374	9.935625
207.888000	446.459015	1441.613037	-23.261875	27.024376	4.038125
178.608002	347.028992	1436.427979	-36.421875	33.267502	-1.085000
206.423996	260.897003	1357.859985	-41.702499	33.005001	-15.968750
163.541000	281.393005	1335.473022	-34.943127	28.153126	-7.883750
277.123016	270.778992	1266.055054	-22.999374	34.803123	-9.751875
159.270996	364.536011	1308.572021	-17.810625	40.026875	-7.240625
256.261017	325.069000	1227.320068	-21.848749	38.115002	-15.334375
202.459000	222.345001	1194.258057	-11.690000	68.705002	-34.006874
167.018005	228.201004	1091.838989	-2.279375	72.196251	-33.775002
145.729004	207.766006	1066.218994	-3.885000	72.428123	-21.826876
178.119995	166.835007	933.726990	-25.007500	64.124374	-24.018749
19.520000	107.360001	744.687988	-27.986876	63.581875	-15.115625
-103.090004	173.057007	866.566040	-21.695625	30.865625	2.611875
-85.643997	41.297001	675.635986	-28.494375	10.858750	3.478125
-190.380997	63.257000	675.026001	-10.871875	7.691250	14.240625
-116.022003	62.708000	775.614990	-8.929375	-8.798125	3.333750
-151.645996	103.944000	721.325012	-9.450000	6.860000	-2.349375
-167.384003	33.489002	802.942993	-2.756250	15.233750	-2.353750
-163.053009	67.892998	828.197021	-9.178750	10.206875	1.413125
-169.275009	44.347000	881.023010	-10.959375	9.261875	5.337500
-200.080002	2.135000	949.830994	-11.510625	5.591250	4.453750
-256.016998	106.750000	998.630981	-8.347500	1.579375	1.828750
-262.605011	16.531000	1020.468994	-7.262500	5.823125	-3.224375
-294.752014	56.913002	1048.223999	-6.930000	0.831250	0.017500
-270.291016	44.469002	1054.263062	-2.585625	-0.800625	1.102500
-255.223999	54.167999	1064.816040	-1.246875	-1.343125	1.264375
217.770004	112.179001	1155.096069	1.408750	3.136875	0.686875
259.006012	103.273003	1147.348999	-1.723750	-2.791250	4.668125
290.360016	67.587997	1165.526978	1.111250	-3.110625	4.484375
291.824005	86.437004	1155.766968	6.426875	1.382500	0.008750
248.941010	98.820000	1122.400024	6.553750	5.250000	0.678125
246.561996	116.632004	1130.146973	2.660000	9.314375	-3.276875
165.675995	88.084000	1378.843994	6.676250	14.323750	0.805000
207.888000	75.212997	1687.260010	1.973125	8.045625	-1.640625
148.108002	76.127998	1898.015015	-10.596250	12.691875	3.928750
119.864998	43.188000	1966.945068	-4.318125	29.465626	6.864375
117.973999	117.363998	1818.593018	25.366249	18.068750	5.700625
184.281006	191.052002	1661.395996	34.986874	-14.599375	6.151250
392.169006	224.906998	1265.688965	5.381250	-11.606875	-7.310625
354.105011	241.438004	1069.879028	-20.908125	30.664375	-2.410625
456.341003	321.774994	983.991028	-45.058125	72.852501	-5.661250
300.608002	211.425995	953.429993	-44.292500	118.741875	-17.364374
233.386002	123.280998	1030.900024	-44.454376	117.656876	-22.417500
178.059006	98.027000	973.864990	-45.539375	90.264999	-23.205000
75.091003	91.439003	959.286011	-34.461876	63.568748	-12.267500
16.775000	22.753000	881.694031	-40.840626	50.071877	-2.178750
-87.535004	134.139008	942.816040	-36.369373	27.829374	12.626250
-0.427000	-121.939003	767.380005	-33.201874	-17.946251	-5.950000
-140.421997	-41.663002	621.041016	-6.973750	-10.583125	4.445000
-40.320999	2.928000	700.401978	-3.023125	14.201250	6.794375
-40.625999	-76.982002	607.559998	-7.997500	44.585625	-9.590000
-228.018005	-73.871002	657.518982	-0.840000	48.199375	-2.384375
-227.164001	-82.654999	734.195984	-12.407500	18.825624	0.896875
-238.326996	-129.076004	776.286011	-9.143750	7.328125	-0.608125
-269.498016	-148.108002	916.098022	-8.194375	-5.814375	0.441875
-249.307007	-71.248001	919.697021	-11.615625	-7.748125	-3.189375
-267.424011	-195.078003	1008.817993	-4.375000	-8.146250	-2.345000
-243.329010	-102.358002	1006.134033	-6.085625	-6.855625	0.293125
-214.964005	-179.339996	1067.865967	-2.301250	-11.795000	0.008750
-218.867996	-140.361008	1087.447021	5.534375	-13.645625	2.786875
-202.641998	-128.222000	1091.594971	2.607500	-10.377500	0.170625
-196.602997	-128.832001	1088.605957	2.380000	-6.326250	-1.194375
-198.860001	-101.625999	1075.552002	0.923125	-3.237500	-0.940625
-166.042007	-113.033005	1033.889038	0.494375	0.476875	-1.198750
207.278000	246.013000	1166.990967	5.215000	-7.030625	-0.385000
190.442001	225.699997	1159.915039	-0.634375	2.716875	-1.413125
231.373001	221.186005	1135.149048	-3.198125	0.490000	-4.125625
249.063004	209.291000	1143.445068	-4.427500	1.890000	-5.206250
247.416000	188.307007	1128.378052	-4.681250	4.431875	-4.563125
253.089005	202.397995	1293.505005	-2.226875	13.453125	-3.303125
167.811005	168.604004	1623.515015	-3.959375	16.572500	-0.455000
170.373001	230.335999	1805.356079	6.991250	23.581249	5.565000
118.523003	239.913010	1948.279053	8.531250	38.701248	5.328750
49.471001	270.351990	1859.828979	16.038750	46.248123	1.605625
64.903999	269.619995	1519.875977	17.206875	41.636875	6.571250
166.347000	264.373993	1378.112061	0.778750	40.814377	3.193750
268.949005	256.627014	1210.484009	-19.888750	37.336250	-9.270625
154.757004	265.654999	1068.719971	-38.014374	47.215000	-11.768750
241.499008	213.805008	1002.230042	-37.843750	74.243752	-18.790625
117.120003	229.482010	1189.134033	-44.891876	90.715622	-26.661249
101.503998	86.253998	997.044983	-40.665627	81.703125	-28.665001
111.325005	100.528000	1065.487061	-46.213123	57.478748	-27.453125
60.389999	8.784000	918.354980	-46.213123	28.831249	-24.828125
-34.160000	-2.623000	756.949036	-54.538750	28.831249	-8.986250
-109.922005	-26.657000	763.171021	-30.638124	1.802500	-8.986250
-109.922005	-26.657000	728.705994	-10.005625	15.933750	1.338750
-137.677002	101.808998	728.705994	-12.897500	35.625626	-10.215625
-140.056000	-12.383000	563.091003	-14.581875	52.320625	-13.995625
-105.469002	-67.771004	612.622986	-8.509375	51.169998	-9.743125
-237.595001	29.829000	599.142029	-2.598750	19.788124	-6.208125
-257.664001	-64.660004	640.866028	-7.231875	20.790001	-3.185000
-362.278992	-87.656998	798.062988	-15.732500	7.669375	0.651875
-372.161011	-61.854000	825.330017	-16.161249	-2.922500	10.727500
-404.795990	-83.142998	1004.121033	-10.093125	-14.013125	10.688125
-361.608002	-120.719002	970.632019	-16.248751	-12.941250	6.370000
-381.372009	-95.098999	1072.928955	-7.958125	-6.658750	2.366875
-321.104004	-138.165009	1058.105957	-14.560000	-11.173750	-3.998750
-334.157990	-129.503006	1103.489990	-2.056250	-10.399375	4.217500
-225.822006	-97.234001	1075.734985	-6.720000	-13.418125	0.691250
-276.574005	-125.233002	1091.777954	-3.132500	-8.312500	1.456875
-237.839005	-88.633003	1055.360962	0.621250	2.826250	1.728125
-251.320007	-125.843002	1023.824036	-1.190000	5.503750	-4.834375
216.488998	311.466003	1174.677002	25.296249	-31.709999	-11.725000
211.425995	279.257996	1192.916016	27.536249	-43.343124	-3.876250
302.316010	356.118011	1171.016968	25.895624	-34.615002	-5.355000
235.460007	326.106018	1095.682007	16.808750	-20.076876	-4.851875
286.639008	333.243011	1104.161011	11.528125	-12.280625	0.144375
282.795990	331.962006	1119.959961	14.021875	-8.588125	2.235625
302.864990	346.480011	1200.541016	13.059375	-4.383750	0.446250
301.950012	450.302002	1343.525024	13.514375	-5.394375	3.941875
288.286011	478.727997	1611.315063	10.451875	6.877500	8.750000
308.721008	567.666016	1765.828003	-1.671250	29.133125	2.471875
207.216995	588.833008	1908.385010	-10.911250	49.398125	3.797500
213.561005	522.403992	1747.223022	-22.049999	70.100624	8.461250
174.764999	441.640015	1614.853027	-28.516251	79.126251	-1.938125
242.962997	438.223999	1479.188965	-32.891251	64.588127	-15.128750
325.679016	332.389008	1243.667969	-41.369999	46.593750	-20.584375
290.360016	263.580994	1033.645020	-42.612499	43.841873	-23.878750
236.130997	275.597992	885.049011	-25.326876	58.292500	-15.553125
222.162003	221.369003	1060.607056	-17.360001	73.841248	9.126250
204.106003	367.890991	915.061035	-23.502501	54.582500	-11.978750
144.875000	153.292999	764.390991	-17.854376	62.343750	-23.883125
87.291000	201.788010	753.411011	-14.507500	46.156250	-15.771875
-90.829002	135.054001	682.528992	-30.506874	35.244999	-19.320000
-72.285004	100.650002	709.064026	-28.962500	31.850000	-19.648125
-170.983002	17.934000	717.664978	-25.217501	19.757500	-19.565001
-184.830002	38.003002	685.030029	-14.953750	16.686251	-24.473749
-164.761002	-55.998001	738.770996	-8.487500	11.882500	-31.626875
-244.610001	97.966003	833.626038	-13.313125	7.665000	-24.023125
-169.335999	17.202000	871.263000	-18.094999	-19.486250	-6.313125
-95.403999	161.223007	950.135986	-11.221875	-17.517500	9.065000
-131.272003	65.391998	1012.356018	-18.781876	-5.280625	22.990625
-196.785995	71.308998	993.324036	-18.961250	-4.095000	24.325001
-188.794998	48.617001	1117.641968	-7.861875	7.026250	4.983125
-213.072998	-38.857002	1070.427979	-6.790000	13.632500	-12.324375
-243.024002	-19.215000	1053.958008	0.301875	0.608125	1.693125
-207.460999	-7.198000	1084.336060	7.218750	0.840000	8.973125
-194.468002	25.132000	1026.812988	12.617500	6.050625	-12.700625
-228.384003	-20.007999	1017.419006	17.486876	9.625000	-5.608750
-236.253006	43.675999	1019.859009	7.756875	6.790000	6.129375
245.708008	269.253998	1075.003052	-7.087500	1.522500	-22.535625
286.028992	304.938995	1099.159058	-1.653750	-3.801875	-9.419375
290.542999	300.608002	1059.143066	3.574375	2.603125	1.124375
273.279999	320.433014	1049.383057	4.602500	0.131250	5.022500
324.337006	316.955994	1059.386963	2.528750	-1.846250	1.763125
314.455017	299.510010	1055.787964	-0.455000	1.176875	-1.999375
312.808014	305.792999	1049.749023	-1.172500	2.944375	-4.077500
286.151001	314.699005	1143.505981	-0.310625	2.511250	-0.914375
309.453003	298.656006	1069.756958	0.070000	8.820000	-1.006250
209.291000	310.002014	1279.597046	0.700000	6.912500	1.268750
251.686005	325.618011	1257.149048	8.286250	1.916250	5.516875
231.921997	354.166016	1370.730957	9.839375	18.869375	4.970000
137.371994	410.347015	1342.305054	9.450000	20.103125	7.043750
130.479004	431.330994	1372.500000	8.338750	23.795626	12.775000
147.132004	419.619019	1470.893066	2.200625	23.200624	11.475625
213.927002	438.528992	1385.005005	4.252500	28.166250	3.084375
272.548004	339.587006	1222.013062	5.503750	37.568127	-1.977500
311.527008	334.768005	1091.717041	8.846250	40.145000	-7.988750
311.343994	346.480011	984.783997	8.124375	46.536877	-13.873125
235.460007	325.069000	985.150024	-4.558750	36.684376	-19.236876
330.864014	362.157013	1104.466064	-15.246875	12.779375	-30.187500
255.651001	394.914001	1025.898071	-23.406250	30.021250	-35.183750
139.751007	341.661011	1140.029053	-19.840626	39.694374	-27.090000
95.648003	373.929993	1116.117065	-23.143749	38.771252	-19.525625
26.657000	306.037018	1180.899048	-14.516250	37.336250	-14.988750
36.295002	349.652008	1151.070068	-6.903750	32.462502	-15.570625
-37.271000	346.480011	1160.402954	-6.903750	32.462502	-16.047501
-37.271000	250.344009	1073.416992	-13.256250	32.243752	-16.047501
20.618000	250.344009	1073.416992	-10.368750	32.799374	-18.939375
-29.280001	270.291016	1020.346985	-14.157500	46.423126	-21.629999
-102.663002	203.191010	945.195007	-20.623751	52.185001	-21.415625
-72.223999	184.585999	895.846008	-21.901251	48.912498	-12.670000
-153.720001	181.169998	817.888000	-27.151251	68.271873	-3.447500
-244.061005	94.733002	788.851990	-24.788750	73.867500	7.166250
-272.548004	93.330002	690.642029	-13.326250	56.603748	3.360000
-316.528992	56.669003	763.598022	-3.845625	30.257500	-3.661875
-327.265015	136.578995	777.627991	-0.498750	16.966249	0.826875
-326.838013	112.056999	821.914001	1.006250	11.751250	-3.386250
246.257004	385.398010	1020.164001	1.719375	-3.141250	0.905625
238.570999	354.776001	1042.428955	-1.645000	-1.343125	0.901250
236.192001	372.893005	1034.743042	1.706250	-1.662500	-1.876875
230.701996	368.683990	1017.846008	2.030000	-3.088750	0.021875
237.350998	374.113007	1020.164001	5.945625	-3.596250	-0.376250
233.996002	376.003998	1039.379028	4.803750	-6.492500	-1.203125
243.329010	418.947998	1146.433960	4.545625	-4.270000	3.198125
139.994995	442.554993	1276.058960	5.250000	0.910000	4.466875
149.266998	440.054016	1342.792969	2.345000	6.103125	4.956875
160.307999	515.328003	1417.151978	2.148125	12.140625	9.870000
