A_X[mg]	A_Y[mg]	A_Z[mg]	G_X[dps]	G_Y[dps]	G_Z[dps]	
196.419998	-14.457000	1116.056030	-9.835000	-0.039375	-6.291250
189.893005	14.884000	1134.172974	-3.346875	1.373750	-3.010000
196.602997	39.466999	1138.687012	0.446250	-7.385000	-0.691250
250.039001	49.776001	1138.625977	2.152500	-6.470625	1.806875
231.556000	66.246002	1134.722046	5.136250	-4.322500	5.188750
206.485001	24.827000	1193.891968	2.800000	-3.193750	5.897500
259.920990	-97.234001	1306.071045	8.006250	-4.755625	7.323750
181.048004	-231.983002	1449.177002	12.473125	-4.130000	15.623125
60.024002	-386.252014	1547.265015	10.018750	17.316250	10.758125
118.828003	-384.910004	1520.058960	28.485624	29.049999	13.431250
85.522003	-210.755005	1585.207031	22.588125	19.582500	39.090626
208.742004	-102.723999	1475.468018	3.718750	4.200000	61.503750
309.209015	26.169001	1736.182007	-27.496876	14.035000	82.381248
333.121002	-96.501999	1308.999023	-34.860001	56.131248	70.008751
230.641006	-167.688995	1339.072021	-27.011250	75.599998	65.406250
237.107010	-150.792007	1241.472046	12.057500	72.205002	34.501251
105.591003	63.684002	1343.402954	-6.930000	52.263748	18.808125
583.770020	145.119003	1033.339966	-1.723750	39.016251	21.923124
325.191010	157.014008	1051.395996	14.288750	76.208122	19.516874
160.490997	131.576996	1050.907959	8.728125	107.834999	30.161249
90.829002	154.268997	950.807007	5.407500	98.017502	35.118126
-12.871000	97.661003	822.158020	1.758750	87.482498	44.699375
-115.107002	335.317017	756.888000	18.865000	48.803123	31.416876
-143.472000	126.941002	676.612000	30.016874	14.170625	21.065624
-166.102997	222.040009	631.960022	18.235001	-15.513750	6.177500
-170.800003	241.865005	669.718994	3.071250	-34.785625	6.046250
-135.968994	246.988998	689.117004	-7.783125	-32.698750	4.484375
-94.306000	236.619003	754.997009	-4.965625	-18.987499	-0.914375
-126.148003	267.912018	857.476990	-6.361250	-18.020624	6.632500
-141.031998	224.175003	922.991028	-7.078750	-14.148750	2.843750
-177.266006	224.358002	996.739990	-3.403750	-2.699375	-0.476875
-144.447998	185.257004	980.880005	-1.474375	-2.108750	-5.381250
-202.824997	157.563004	1028.582031	-6.510000	-5.066250	0.148750
-200.934006	157.136002	1030.290039	-5.630625	-2.318750	4.904375
-235.826004	107.237999	1041.270020	-1.255625	-3.845625	8.386875
-208.863998	119.194000	1070.306030	2.021250	-5.315625	5.298125
-226.188004	114.436005	1081.895996	7.398125	-2.025625	1.570625
-209.839996	118.645004	1098.488037	7.660625	-1.890000	-2.244375
220.454010	108.458000	1160.281006	4.331250	-0.966875	5.346250
235.947998	104.676003	1128.988037	-0.717500	0.358750	-1.093750
245.525009	108.519005	1112.395996	-0.463750	1.338750	-4.003125
245.098007	91.134003	1106.600952	-0.358750	1.938125	-2.791250
234.057007	89.914001	1093.425049	-0.551250	-0.822500	-2.559375
216.306000	27.084000	1188.645996	1.859375	-3.198125	0.577500
240.279007	-18.910000	1251.476074	4.641875	-4.650625	3.613750
167.932999	-177.022003	1382.931030	3.211250	-7.315000	6.317500
232.166000	-262.971008	1530.672974	3.211250	-7.315000	12.158125
232.166000	-414.373016	1751.859009	8.789375	-17.661875	12.158125
236.619003	-414.373016	1751.859009	18.808125	-8.811250	18.812500
335.683014	-213.012009	1706.170044	32.414375	19.311251	-6.715625
359.472992	-65.209000	1479.799072	27.055000	33.761875	-1.181250
247.294006	-31.659000	1334.984985	37.248749	18.746876	13.619375
189.893005	57.462002	1189.195068	46.777500	-11.528125	2.975000
393.816010	184.158997	1163.331055	31.154375	-28.848749	-1.623125
332.571991	504.714020	1066.768066	23.852501	7.813750	25.248125
581.817993	206.912003	1029.375000	-2.835000	88.436249	22.526875
491.233002	355.691010	1254.953003	-11.200000	117.700623	14.931875
323.056000	296.399017	1111.664062	-8.360625	117.630623	21.481251
151.035995	336.170990	1056.581055	-7.183750	101.080002	33.306873
96.563004	251.503006	981.489990	-16.034374	55.960625	48.706875
-29.280001	150.975006	888.892029	-35.415627	31.784374	52.919998
71.431000	243.389999	827.403992	-38.990002	48.072498	36.736874
-65.879997	168.481995	740.601013	-8.868125	61.993752	28.008751
-39.161999	251.380997	617.564026	4.550000	42.603748	25.134375
-32.390999	256.261017	719.007019	6.899375	25.869375	23.056250
-37.088001	330.985992	729.132996	0.682500	21.363125	33.136250
-210.328003	278.891998	748.531006	-6.505625	25.129999	27.811874
-223.565002	302.987000	796.294006	-13.037500	9.021250	37.121876
-218.563004	300.730011	884.744019	-4.729375	-5.967500	30.358126
-246.257004	300.242004	931.226013	0.424375	-2.432500	14.901250
-180.621002	316.955994	991.981995	-1.203125	-0.581875	14.109375
-259.006012	277.855011	1009.184021	4.471250	3.298750	13.251875
-188.673004	283.101013	1036.390015	2.848125	-3.526250	6.238750
-242.352997	234.727997	1068.719971	1.203125	-1.111250	6.965000
-205.387009	290.542999	1086.044067	4.296250	0.595000	7.428750
-199.042999	227.895996	1120.875000	3.893750	-5.420625	12.547500
216.916000	106.506004	1095.682007	17.311874	13.256250	-5.757500
241.499008	97.904999	1073.782959	17.631250	10.648750	1.968750
266.752991	155.061996	1037.609985	14.157500	3.854375	8.255625
265.716003	138.835999	1044.990967	9.856875	2.100000	9.922500
320.433014	185.440002	1100.379028	2.423750	-0.700000	9.082500
294.934998	94.306000	1170.162964	-4.641875	2.581250	6.654375
256.016998	100.223000	1164.062988	-4.248125	12.311250	-0.350000
243.817001	37.453999	1221.952026	-5.823125	11.895625	0.853125
196.419998	-52.399002	1326.261963	2.953125	6.431250	2.620625
307.256989	-139.263000	1495.476074	17.325001	13.934375	3.731875
193.979996	-190.442001	1473.942993	31.460625	29.386875	7.953750
93.513000	-107.909004	1430.510986	25.165001	57.028126	12.376875
116.815002	-148.779007	1436.367065	24.184999	62.982498	30.423750
-82.837997	29.097000	1338.583984	21.424376	43.942501	37.222500
94.245003	144.509003	1403.305054	18.318125	22.566250	31.815001
254.675003	223.748001	1497.427979	21.288750	-7.940625	39.886875
347.334015	160.063995	1241.411011	41.912498	11.353125	17.937500
362.828003	360.876007	1178.764038	19.547501	46.108124	6.120625
365.938995	298.045990	1131.062012	-13.746250	65.139374	9.603125
268.522003	330.742004	1062.925049	-25.650625	83.256248	16.161249
175.192001	241.376999	1085.860962	-26.783751	105.380623	28.494375
-22.264999	235.520996	1047.552979	-24.749374	83.234375	24.902500
12.261000	272.487000	903.410034	0.818125	49.166248	40.337502
39.284000	295.789001	832.955017	7.087500	31.801874	37.546249
-59.719002	245.464005	813.130005	4.580625	21.205626	26.302500
-10.858000	257.420013	802.699036	-0.380625	16.581249	28.385000
-97.539001	244.427002	778.421021	6.571250	31.771250	15.321250
-194.956009	233.569000	809.591980	22.653749	55.689377	-1.684375
-198.128006	336.049011	843.569031	11.768750	47.009377	-6.059375
-172.813004	386.800995	818.803040	-9.651250	5.127500	5.530000
-222.040009	368.440002	822.463013	-20.426874	-6.164375	11.051250
-164.699997	432.123993	846.009033	-22.640625	5.573750	14.748125
-309.269989	333.243011	893.040039	-20.142500	18.348749	21.026251
-288.834991	323.605011	900.543030	-16.445625	10.587500	17.364374
-329.217010	306.708008	959.286011	-12.490625	-0.275625	7.459375
-286.334015	294.325012	975.390015	-11.007500	-0.192500	0.595000
-325.313019	269.315002	1002.718018	-10.679375	-0.678125	1.964375
-293.898010	236.313995	1012.966003	-7.616875	-1.273125	7.100625
10.919000	145.790009	1202.310059	0.901250	-16.152500	9.695000
42.456001	134.261002	1213.534058	2.686250	-10.346875	8.955625
89.548004	160.186005	1186.876953	6.020000	-5.901875	7.599375
130.783997	149.999008	1158.817017	4.484375	-0.371875	4.151875
110.776001	147.253998	1140.333984	5.298125	6.151250	3.858750
118.035004	114.436005	1130.269043	3.985625	9.104375	2.979375
65.209000	63.806000	1212.130981	5.210625	9.870000	7.577500
7.991000	-5.551000	1323.273071	10.513125	12.805625	7.765625
-59.048000	-74.237000	1435.025024	21.201250	16.349375	11.261250
-175.497009	-191.356995	1716.234985	33.971874	21.752501	37.340626
-92.292999	-129.930008	1641.388062	52.972500	26.809999	45.311874
-31.476000	0.061000	1556.903076	68.538750	43.885624	55.908127
-59.230999	88.816002	1523.536011	71.815628	68.372498	61.263126
-40.687000	212.768005	1388.665039	67.637497	60.974377	49.682499
-15.555000	338.794006	1236.775024	40.490623	14.126875	45.040627
95.343002	361.303009	1227.136963	7.665000	-22.203125	34.295624
200.934006	389.179993	954.955017	-16.493750	-6.881875	5.145000
226.492996	407.175018	1068.049072	-32.235001	34.881874	-18.956875
122.061005	457.317017	988.809998	-37.896252	81.891251	-23.336250
73.444000	380.518005	1112.151978	-27.291250	98.070000	-3.224375
35.806999	356.057007	1021.932983	-16.344999	89.096878	0.743750
-200.324005	378.139008	980.453003	-16.165625	66.123749	1.876875
-10.065001	372.954010	935.862000	-19.438126	39.519375	15.246875
-40.504002	333.487000	882.364990	-11.274375	58.213749	14.686875
-24.400000	338.001007	746.578979	-10.911250	49.275623	-10.517500
-188.063004	300.058990	812.947021	-13.540625	33.814377	-19.617500
-187.391998	354.105011	682.895020	-6.234375	47.162498	-9.231250
-262.544006	240.584000	665.388000	-13.151250	39.523750	12.823125
-273.463013	354.105011	642.268982	-16.231251	26.468750	10.447500
-306.708008	328.485016	674.416016	-2.248750	22.688749	1.771875
-362.644989	349.225006	742.552979	-3.303125	18.248125	6.317500
-325.069000	361.730011	774.578003	-11.178125	10.788750	0.231875
-462.014008	315.858002	829.173035	-7.109375	5.971875	-2.401875
-432.856018	298.656006	874.374023	-10.963750	-6.094375	-3.075625
-518.439026	249.490005	938.851013	-7.914375	-9.100000	-2.008125
-501.664001	277.916016	928.481018	-2.209375	-0.476875	-2.235625
-506.056000	255.285004	983.991028	-1.653750	-4.221875	-2.156875
-469.516998	271.937988	985.515991	-3.338125	-7.896875	0.625625
40.504002	163.479996	1124.412964	7.870625	-1.916250	2.161250
30.439001	161.650009	1116.971069	4.939375	-0.175000	3.373125
40.443001	171.348999	1118.130005	2.778125	2.257500	2.170000
44.469002	152.500000	1148.508057	1.640625	0.840000	3.596250
38.368999	149.572006	1147.776001	0.564375	3.005625	-0.647500
59.475002	136.945007	1137.711060	4.545625	9.336250	0.560000
43.798000	133.223999	1163.880005	4.685625	8.653750	6.466250
0.793000	63.867001	1243.973022	3.600625	4.602500	13.890625
-19.764000	-40.199001	1419.409058	11.287500	5.731250	18.808125
-99.307999	-93.269005	1440.880981	22.443750	9.655625	18.965626
-45.688999	-90.584999	1462.963013	24.784374	17.841249	32.134377
-55.083000	-90.767998	1461.560059	26.009375	23.485001	41.728748
-19.459000	26.047001	1490.718018	39.554375	38.198124	49.931873
4.331000	86.863998	1494.682983	27.991249	59.871876	63.848751
-77.592003	223.503998	1401.536011	24.412500	78.938126	57.198750
-113.338005	384.360992	1322.479980	17.793125	73.145622	47.092499
-128.832001	400.891998	1297.531006	3.552500	54.381248	32.055626
-88.876999	563.945007	1184.619995	-1.741250	38.806252	14.791875
-82.532997	455.182007	1124.473999	-20.444374	37.064999	9.918125
18.971001	439.688019	1144.299072	-10.683750	49.139999	6.059375
-139.201996	395.157990	1030.534058	-12.429375	81.414375	13.335000
-116.083000	369.233002	1026.264038	-21.052500	54.490623	22.780624
-103.334000	338.306000	948.306030	-0.424375	36.728127	21.748125
-92.475998	311.893005	859.673035	-2.130625	27.125000	19.757500
-41.663002	322.385010	781.044006	0.271250	39.821251	29.251249
-65.696999	324.825012	706.807007	3.928750	50.811249	19.048750
-198.921005	353.433990	610.122009	2.813125	49.529373	-2.397500
-157.624008	388.265015	632.997009	-1.894375	30.511250	11.698750
-184.403000	352.701996	596.153015	-8.513750	16.476250	15.518125
-246.195999	408.395020	660.812988	-14.420000	9.489375	7.310625
-291.335999	373.076019	692.716003	-11.383750	-2.130625	9.388750
-281.759003	384.056000	811.544006	-11.681250	0.358750	12.075000
-299.876007	411.506012	856.195984	-5.022500	1.338750	5.276250
-376.248016	407.601990	907.130981	5.215000	12.626250	9.051875
-358.924011	400.587006	936.228027	3.526250	3.893750	7.581875
-463.539001	381.738007	960.079041	1.789375	7.363125	6.396250
-461.160004	373.136993	953.491028	3.438750	10.766875	1.898750
-477.020020	364.475006	972.401001	2.248750	-1.198750	-0.818125
-33.184002	240.096008	1097.878052	-1.933750	3.683750	4.291875
-30.561001	237.900009	1084.092041	-4.230625	-2.415000	5.346250
-30.622000	202.520004	1170.529053	-2.594375	-2.331875	8.487500
-35.380001	224.296997	1158.451050	-0.503125	2.467500	5.481875
-81.008003	206.302002	1192.977051	-1.557500	11.650625	6.803125
-148.412994	126.758003	1365.180054	-3.731875	10.740625	12.547500
-251.625000	145.363007	1415.383057	4.068750	7.796250	14.695625
-268.765991	18.056000	1671.461060	19.193125	18.396875	27.304375
-261.873016	77.835999	1638.459961	40.958752	32.580624	37.961876
-277.794006	160.735001	1566.419067	36.277500	38.259377	39.882500
-174.643005	260.165009	1527.623047	3.189375	26.477501	43.098125
-110.105003	281.881012	1354.322021	-17.276875	38.294376	32.436249
-81.374001	248.391998	1220.671021	-5.066250	55.103127	24.080000
-59.841000	344.467010	1054.019043	-8.553125	54.792500	19.070625
-108.945999	284.381989	1082.628052	-2.384375	74.720627	3.390625
-175.802002	321.774994	1000.278015	-0.161875	79.502502	-4.449375
-57.401001	274.377991	954.283997	-8.583750	43.653751	12.158125
29.463001	420.106995	963.739014	-5.035625	29.828751	5.595625
43.675999	371.246002	866.078003	-4.401250	45.653126	-4.541250
-211.852997	381.311005	943.791992	-26.705000	55.230000	2.152500
-304.634003	320.006012	933.604980	-29.640625	55.969376	-6.033125
-327.020996	310.429016	830.880981	-32.200001	47.691875	1.894375
-392.596008	233.874008	846.557983	-29.815624	17.902500	17.920000
-234.789001	217.404007	788.059021	-5.223750	12.158125	7.013125
-350.200989	264.496002	705.892029	-1.172500	16.493750	10.500000
-203.679001	346.662994	711.565002	-11.103750	10.469375	16.887501
-289.567017	345.138000	672.158997	-12.998125	14.721875	16.795626
-274.011993	353.983002	686.372009	-12.998125	24.810625	14.424375
-300.669006	411.384003	735.598999	-5.792500	24.810625	14.424375
-300.669006	411.384003	816.973022	-5.341875	4.003125	13.619375
-409.066010	376.126007	816.973022	-3.386250	5.451250	16.537500
-407.114014	396.438995	846.314026	4.379375	9.003750	7.074375
-508.923004	365.024017	885.171021	3.066875	2.310000	9.926875
-492.148010	377.589996	932.202026	-0.126875	-3.241875	11.983125
-553.026001	315.369995	982.283020	5.267500	-4.628750	4.515000
-470.981018	341.600006	965.996033	2.213750	-5.967500	1.273125
-466.589020	339.891998	969.473022	0.905625	-2.839375	2.826250
-442.433014	291.580017	952.697998	2.594375	4.961250	2.975000
-156.037994	146.522003	1157.597046	-0.205625	-9.270625	2.016875
-139.445999	159.087997	1151.619019	-0.262500	-6.164375	4.830000
-119.133003	114.557999	1143.567017	1.435000	-1.461250	5.932500
-122.975998	127.612000	1105.015015	-0.993125	0.752500	1.793750
-120.658005	81.862000	1129.049072	-3.828125	-3.377500	3.990000
-123.585999	85.339005	1192.306030	-3.946250	-7.341250	7.971250
-166.469009	8.662000	1281.609985	-4.843125	-1.741250	10.959375
-262.056000	-26.474001	1375.427979	0.485625	-1.596875	9.200625
-221.735001	-71.492004	1459.546997	11.869375	-2.629375	17.202499
-350.811005	-74.054001	1541.042969	17.272499	-3.128125	23.441250
-192.943008	-63.440002	1591.307007	21.122499	-14.262500	20.291250
-139.751007	14.518001	1539.457031	33.748749	1.557500	18.991875
-83.631004	45.139999	1483.947021	33.880001	29.281876	21.297501
-71.492004	121.756004	1351.454956	22.509375	48.015625	17.858749
3.172000	291.213989	1264.468994	20.488125	76.505623	19.271875
-43.431999	184.708008	1168.638062	8.890000	113.833122	30.165625
-173.300995	197.762009	1036.451050	10.434375	107.576874	38.810623
-204.472000	192.089005	1124.473999	-8.675625	73.994377	31.841249
-81.618004	244.061005	988.382996	-0.144375	82.464378	19.381250
-199.287003	472.506012	976.061035	-17.158751	66.832497	12.236875
-138.958008	439.932007	901.153015	-29.478750	46.344376	20.146875
-371.977997	399.855011	817.949036	-22.618750	52.438751	31.596251
-263.764008	331.291016	833.747986	-19.980625	21.805000	59.049374
-233.507996	306.281006	767.014038	-18.016251	11.143125	45.097500
-297.679993	314.576996	693.875000	-8.553125	28.253750	27.881874
-224.113998	389.545990	699.975037	-18.116875	23.248751	6.216875
-326.532990	318.602997	672.281006	-25.305000	24.920000	5.503750
-271.877014	431.941010	647.515015	-26.276251	27.846874	7.380625
-395.524017	353.556000	648.307983	-31.215626	8.911875	5.709375
-369.660004	419.131012	743.773010	-32.116875	-1.920625	7.577500
-435.174011	339.648010	764.757019	-23.979376	3.443125	3.018750
-488.915009	351.115997	832.345032	-13.916875	2.156875	4.151875
-459.940002	337.330017	879.619995	-4.563125	-6.689375	1.666875
-528.809021	301.096008	899.322998	2.135000	-5.092500	6.059375
-513.132019	322.628998	915.000000	0.017500	-2.069375	5.398750
-549.304993	258.640015	930.372009	-1.675625	0.319375	6.566875
-518.377991	293.959015	929.884033	-0.166250	-3.526250	2.117500
-522.648010	275.231995	927.932007	3.688125	-5.473125	1.592500
-170.678009	65.026001	1212.192017	-9.782500	-13.925625	-23.625000
-123.830002	97.844002	1218.718994	-5.057500	-8.872500	-17.513124
-119.133003	48.312000	1214.875977	1.356250	-4.274375	-7.962500
-133.956009	116.937004	1181.203979	7.205625	0.223125	-2.603125
-136.639999	122.549004	1151.680054	7.288750	-0.319375	0.525000
-105.896004	121.634003	1134.966064	6.803125	-1.176875	4.882500
-78.933998	126.453003	1139.052979	7.568750	5.385625	1.601250
-88.145004	132.431000	1101.598999	4.020625	8.089375	2.515625
-68.502998	96.746002	1128.134033	1.141875	5.219375	3.574375
-84.912003	123.098000	1115.263062	2.865625	6.671875	4.025000
-90.951004	111.081001	1151.253052	2.288125	6.225625	3.233125
-104.554001	79.300003	1197.307983	2.419375	8.050000	5.901875
-195.078003	35.563000	1297.531006	2.528750	10.193750	5.346250
-201.361008	-45.506001	1414.285034	2.406250	8.120000	11.138750
-325.984009	-147.070999	1481.750977	18.388124	0.892500	19.928125
-248.270004	-119.681999	1553.730957	33.901875	4.169375	23.611876
-227.712997	-0.488000	1507.554077	43.605625	11.235000	35.590626
-281.759003	45.262001	1529.331055	30.646875	17.500000	38.867500
-191.662003	92.720001	1464.609985	9.730000	25.506250	44.926876
-123.159004	71.613998	1500.416992	1.553125	30.603125	35.096249
-116.205002	323.726990	1338.889038	1.920625	37.310001	14.857500
7.564000	222.466995	1243.057983	3.561250	26.866875	28.840000
-94.976997	281.088013	1207.921997	3.885000	34.711250	38.189377
47.640999	314.272003	1130.817993	5.499375	65.646873	21.949375
-183.244003	238.753998	1115.933960	11.913125	83.912498	19.814375
-67.404999	333.425995	1086.531982	10.325000	60.125626	30.213751
-1.281000	356.057007	870.958008	11.239375	57.417500	32.908749
-24.827000	354.653992	734.379028	6.973750	63.840000	16.611876
-55.144001	434.320007	587.491028	-5.263125	70.253754	9.681875
-119.438004	412.908997	566.690002	-17.854376	61.459999	12.696250
-197.639999	370.209015	560.773010	-10.438750	49.866249	22.933750
-256.139008	431.757996	520.268982	-12.241250	31.202499	27.610624
-175.619003	464.332001	602.375000	-12.000625	4.396875	14.892500
-341.661011	474.946014	627.263000	-6.868750	1.723750	6.628125
-302.255005	495.259003	691.374023	-8.671250	5.438125	8.592500
-465.613007	428.220001	787.692993	-6.020000	4.821250	8.693125
-418.093994	452.437012	811.361023	2.358125	2.861250	5.700625
-489.158997	410.225006	886.085999	3.828125	-7.599375	3.294375
-41.785000	171.410004	1122.461060	5.455625	4.108125	13.090000
-41.723999	211.731003	1093.729980	5.866875	7.301875	11.466875
-33.123001	213.012009	1085.250977	2.078125	0.183750	8.128750
-13.725000	219.660995	1087.141968	-3.416875	-5.013750	4.427500
10.187000	202.641998	1122.094971	-3.066875	-4.440625	3.355625
-52.826000	163.053009	1260.992065	-6.269375	-4.860625	4.847500
-52.826000	99.795998	1339.803955	-0.446250	-4.208750	6.728750
-166.285995	20.252001	1488.704956	8.054375	3.858750	14.743750
-208.436996	-13.054000	1545.739990	24.473749	0.306250	24.661875
-259.738007	13.054000	1617.292969	40.341873	-0.446250	32.060001
-147.436996	116.265999	1509.018066	51.550625	-3.416875	36.706249
