A_X[mg]	A_Y[mg]	A_Z[mg]	G_X[dps]	G_Y[dps]	G_Z[dps]	
276.696014	120.779999	1086.166016	-0.476875	-2.183125	-3.513125
276.696014	134.322006	1091.838989	1.102500	-2.900625	-2.340625
284.442993	118.096001	1088.362061	-1.391250	-1.846250	-2.813125
285.480011	112.179001	1095.376953	-0.065625	1.601250	-2.266250
262.117004	125.293999	1094.339966	1.290625	-0.091875	-2.896250
303.902008	57.522999	1163.575073	2.891875	-2.463125	-4.178125
290.787018	25.132000	1258.552002	6.597500	-1.483125	1.343125
266.752991	-157.807007	1486.447998	12.026875	3.705625	10.841250
246.806000	-157.257996	1510.909058	15.828750	11.816875	16.082500
206.973007	-190.930008	1533.723022	9.511250	24.871876	29.924999
218.380005	-154.878998	1546.959961	11.917500	36.596874	47.731251
180.255005	-213.927002	1494.317017	9.734375	56.525002	58.638126
224.113998	-183.244003	1531.405029	20.916876	74.843124	50.365002
244.671005	7.381000	1363.105957	21.590626	83.317497	41.755001
271.084015	-67.404999	1337.546997	12.066250	82.333122	46.296249
268.644012	94.123001	1231.223999	1.728125	71.986252	45.906876
248.391998	85.217003	1164.734009	-7.258125	54.967499	57.575001
235.764999	222.162003	998.875000	-6.514375	55.046249	56.070000
111.020004	323.239014	928.968994	-25.939375	49.883751	59.123749
115.595001	372.649017	997.898987	-38.530624	31.504375	63.349998
46.421001	333.975006	910.059021	-34.041874	35.958126	52.031876
-4.880000	386.434998	907.802002	-30.716875	47.871250	41.383125
58.072002	353.921997	885.171021	-28.105000	20.973749	42.822498
-64.293999	265.654999	794.098022	-4.379375	17.084375	27.090000
-6.954000	305.183014	842.044006	-4.379375	5.153750	9.673125
-10.126000	296.032990	687.226013	-1.413125	5.153750	9.673125
-10.126000	296.032990	824.476013	5.862500	4.173750	3.937500
-221.369003	118.766998	824.476013	4.003125	14.135625	-11.016250
-138.775009	223.260010	801.356995	8.509375	1.806875	-3.898125
-170.311996	224.113998	865.101990	17.364374	-5.210625	8.137500
-154.940002	223.138000	961.421021	27.160000	0.415625	5.232500
-187.026001	254.613998	984.845032	20.365625	1.378125	9.191875
-179.766998	236.436005	1003.632996	8.710625	3.806250	6.540625
-253.943008	214.292999	1008.268982	4.655000	1.137500	-0.043750
-213.805008	198.128006	1060.484985	-5.350625	-3.469375	6.383125
-219.173004	184.830002	1077.992065	-2.712500	-7.236250	5.613125
-189.222000	171.471008	1121.424072	-0.358750	-10.290000	5.302500
-164.516998	195.139008	1111.114990	0.608125	-5.945625	3.653125
230.397003	242.352997	1057.008057	2.113125	-1.771875	2.734375
250.039001	239.119995	1066.463013	0.389375	-4.851875	3.080000
233.630005	236.070007	1093.119995	-0.455000	-3.290000	3.456250
220.087997	233.141998	1089.093994	-1.286250	-3.346875	2.703750
211.121002	221.125000	1087.630005	-2.546250	-2.887500	0.918750
207.522003	197.091003	1113.555054	-1.483125	-4.283125	-0.297500
188.977997	116.632004	1242.875000	2.253125	-9.467500	-3.010000
200.690002	65.879997	1393.362061	5.333125	-9.183125	0.901250
153.354004	-58.804001	1644.620972	11.060000	-2.629375	7.021875
127.185005	-88.694000	1647.122070	24.259375	9.887500	6.890625
216.184006	-22.143000	1681.708984	27.645624	10.775625	21.402500
281.393005	2.623000	1593.990967	23.988125	21.363125	32.720627
315.065002	84.362999	1474.065063	13.475000	38.451874	36.548752
362.584015	152.438995	1363.593994	1.491875	52.736252	34.601875
385.703003	190.259003	1221.952026	-11.431875	73.600624	32.042500
293.653992	206.302002	1076.100952	-16.384375	103.481873	30.533125
189.893005	239.242004	1098.427002	-17.570000	111.400627	38.981251
132.309006	284.626007	1015.710999	-18.799376	90.334999	46.095001
107.909004	215.513000	928.481018	-12.285000	45.985626	54.985001
171.897995	320.981995	879.986023	-8.837500	25.300625	55.343750
98.637001	356.911011	860.100037	-6.387500	31.386250	39.431873
82.349998	300.791016	838.200989	-10.863125	37.764999	39.103748
-6.405000	372.161011	875.533020	-10.224375	35.533749	24.946251
-100.405998	346.541016	866.382996	-17.045000	50.715000	30.065001
-44.347000	366.304993	874.191040	-15.728125	32.983124	29.610001
-147.925003	305.122009	863.942993	-5.171250	19.700624	17.460625
-148.229996	324.337006	866.687988	3.080000	17.714375	4.589375
-205.020996	381.615997	774.333984	9.926875	8.063125	4.733750
-180.865005	313.845001	869.372009	4.099375	-2.012500	14.306250
-191.113007	343.552002	848.632019	3.338125	4.410000	11.003125
-212.097000	319.213013	881.450012	5.346250	18.445000	7.371875
-218.441010	296.765015	882.669983	3.272500	10.320625	0.752500
-273.707001	286.761017	955.504028	-3.040625	1.693125	4.961250
-286.944000	275.415009	980.697021	-5.355000	-0.616875	3.762500
-296.154999	253.820999	1042.245972	-1.540000	-3.705625	2.756250
-270.412994	249.856003	1082.932983	-3.395000	-8.868125	1.693125
-244.488007	249.490005	1080.920044	-1.841875	-12.219375	2.161250
-211.914001	228.750000	1082.628052	-2.183125	-10.727500	1.925000
153.537003	252.845001	1065.730957	-2.874375	10.167500	0.354375
217.647995	258.822998	1064.083984	-0.708750	2.913750	3.163125
201.666000	248.819000	1060.057983	-0.831250	2.493750	2.896250
215.208008	252.479004	1087.385986	-2.419375	-0.358750	1.588125
247.050003	243.938995	1095.743042	-3.622500	-0.288750	0.437500
226.676010	239.729996	1093.729980	-1.456875	5.158125	0.021875
221.917999	218.441010	1124.108032	-0.949375	3.670625	-0.665000
197.212997	184.220001	1217.682007	2.900625	-0.796250	0.927500
132.979996	68.137001	1378.051025	3.701250	1.999375	5.210625
153.171005	-20.679001	1567.029053	12.980625	1.583750	11.952500
57.827999	-68.197998	1542.873047	20.365625	4.370625	19.232500
141.581009	-12.627000	1580.327026	26.075001	13.518750	21.048124
211.242996	-8.967000	1507.493042	19.490625	24.473749	26.823126
252.723007	9.699000	1382.625977	14.223125	31.110624	34.334999
295.727997	142.800995	1357.188965	8.522500	42.070000	26.009375
239.181000	290.542999	1268.739014	-5.263125	44.944374	24.482500
349.774017	290.847992	1272.276978	-14.498750	51.712502	25.235001
345.382019	342.149017	1105.503052	-9.345000	88.226250	34.781250
300.973999	342.697998	1130.390991	-13.387500	86.515625	34.991249
216.854996	431.636017	904.934998	-28.616875	99.080627	28.542500
48.312000	389.240997	910.669006	-42.253750	105.144379	31.622499
-94.916000	356.118011	928.846985	-37.174374	75.845001	31.583124
-44.834999	347.151001	902.983032	-25.073126	42.131248	30.419374
-53.741001	277.367004	907.741028	-9.126250	8.920625	27.348125
-98.942001	335.622009	866.260986	-7.288750	11.795000	24.718750
-8.784000	334.036011	898.286011	-7.717500	23.270624	25.484375
-83.264999	227.591003	848.265991	-3.543750	40.263126	22.032499
-128.343994	298.717010	850.278992	-2.948750	28.822500	10.478125
-186.843002	275.781006	804.346008	0.533750	24.049376	15.942500
-229.908997	257.298004	792.572998	3.036250	19.416250	18.291876
-296.093994	249.794998	848.815002	-1.133125	5.936875	13.510000
-284.503998	257.481018	858.330994	-2.695000	-0.949375	17.605000
-282.917999	300.973999	955.199036	2.314375	-9.445625	8.474375
-261.628998	313.662018	952.820007	2.471875	-8.225000	2.830625
-277.428009	306.158997	962.945984	4.261250	-1.688750	1.378125
-270.046997	272.425995	1000.705017	1.780625	-2.384375	0.214375
-267.302002	284.015991	1007.049011	-3.250625	-6.444375	-4.676875
-283.772003	256.505005	1044.503052	-2.791250	-7.568750	-0.301875
241.011002	33.977001	1061.704956	9.349375	-3.066875	-3.788750
216.611008	9.211000	1137.771973	7.240625	-6.514375	2.725625
254.553009	10.736000	1128.072998	2.253125	-10.539375	2.248750
295.606018	-17.812000	1153.875977	-0.183750	-4.151875	2.979375
252.479004	-53.924000	1145.152954	-0.778750	4.208750	3.281250
239.913010	-82.044998	1196.393066	1.141875	1.968750	4.685625
262.726990	-134.992996	1247.999023	2.283750	-0.227500	7.791875
259.738007	-205.997009	1384.822021	10.360000	8.719375	14.192500
198.005997	-268.399994	1462.170044	6.466250	10.863125	32.466873
164.212006	-409.798004	1544.093018	0.210000	1.531250	47.385624
229.908997	-492.880005	1563.613037	-1.846250	19.604376	48.496876
279.075012	-385.276001	1451.067993	24.648750	30.415001	69.724373
218.867996	-178.059006	1482.910034	31.329374	59.438751	88.086250
187.514008	-161.528000	1393.178955	15.925000	64.242500	83.396248
228.750000	-24.400000	1207.921997	16.983749	64.159378	78.986252
209.229996	-10.004000	1286.978027	12.954375	70.175003	68.044373
278.464996	105.224998	1075.125000	2.625000	59.119373	56.306252
195.139008	8.174000	1087.874023	-18.519375	55.855625	38.530624
187.209000	193.369995	1096.841064	0.087500	53.283127	8.763125
247.538010	239.486008	888.221008	-16.791250	54.201874	0.980000
123.585999	180.987000	1045.174072	-30.979376	49.542500	18.291876
-14.152000	312.869019	902.556030	-24.093124	53.147499	0.625625
-100.710999	97.966003	844.911011	-16.957500	36.386875	6.868750
-128.039001	255.102005	995.398010	-4.366250	-10.316250	9.253125
-102.906998	136.091003	718.763000	0.196875	2.852500	11.532500
-122.487999	158.417007	768.905029	-9.082500	42.818127	28.122499
-181.352997	127.856003	790.132996	-19.538750	14.910000	46.628750
-211.792007	115.229004	831.918030	-20.138124	-2.100000	39.029373
-198.615997	150.975006	905.484009	-18.291876	-20.440001	29.443750
-152.012009	115.655998	945.561035	-21.647499	-15.846250	17.088751
-237.595001	100.040001	1007.720032	-11.497500	-5.840625	4.865000
-209.839996	8.540000	1023.945984	-8.194375	-6.466250	8.513750
-256.932007	14.457000	1046.577026	1.863750	-6.750625	3.425625
-219.904999	16.531000	1034.010986	10.093125	-5.350625	2.708125
-230.275009	5.063000	1053.165039	10.093125	-5.350625	6.545000
-230.275009	0.854000	1085.921997	8.553125	-3.263750	6.545000
-220.880997	0.854000	1085.921997	2.926875	-7.210000	4.064375
-219.112000	-4.636000	1097.390015	3.985625	-3.031875	0.542500
270.778992	-68.502998	1140.516968	-0.551250	-2.874375	-6.741875
249.307007	-57.462002	1122.277954	1.439375	0.048125	-4.773125
252.845001	-27.938000	1125.999023	3.780000	-2.156875	0.796250
282.429993	-43.554001	1122.156006	4.348750	-1.028125	1.754375
288.468994	-13.176001	1115.385010	7.433125	3.053750	2.283750
291.274994	-39.101002	1162.416016	6.352500	0.888125	4.130000
306.220001	-131.882004	1237.323975	9.253125	-0.853125	5.258750
282.613007	-232.714996	1398.912964	9.918125	2.226875	9.590000
224.906998	-382.408997	1479.311035	23.117500	15.649375	15.172500
255.223999	-318.664001	1501.270996	29.277500	19.324375	28.087500
308.598999	-330.437012	1424.349976	33.810001	12.088125	43.898750
318.237000	-286.455994	1367.437012	43.001877	18.860624	44.795624
344.772003	-181.292007	1322.235962	39.926250	27.238750	38.696877
389.424011	-57.706001	1282.402954	40.538750	42.507500	36.373749
345.260010	63.440002	1268.556030	15.417500	40.556252	36.491875
403.332001	242.109009	1215.181030	2.988125	40.634998	35.271252
382.287018	247.964996	1196.088013	-24.565624	50.815624	40.411877
393.205994	261.812012	1143.688965	-31.228750	67.410004	39.130001
191.173996	193.065002	1047.004028	-21.284374	87.486877	37.568127
209.108002	241.682007	1070.000977	-10.386250	75.210625	41.973751
151.707001	318.786011	941.840027	-23.270624	56.231876	49.227501
38.552002	195.444000	1000.033997	-22.518126	56.244999	59.342499
65.026001	220.820007	854.915039	-13.597500	53.274376	48.173126
-56.242001	232.044006	829.416992	-22.308125	45.106251	40.057499
-128.649002	210.511002	814.593994	-20.790001	30.646875	37.419376
-143.837997	206.302002	822.585022	-10.692500	16.913750	18.891251
-197.091003	223.016006	793.000000	-3.950625	19.092501	6.720000
-102.846001	239.119995	827.830994	-7.315000	22.426250	-2.327500
-256.444000	185.134995	841.556030	-11.694375	15.089375	0.336875
-214.598007	213.622009	859.916992	-7.271250	3.828125	8.461250
-260.958008	75.517998	962.640991	-8.181250	-2.747500	13.190625
-231.556000	90.158005	953.369019	-2.248750	0.962500	7.656250
-270.291016	44.042000	1042.612061	-0.017500	-5.884375	5.753125
-234.789001	31.781000	1026.751953	2.966250	-6.706875	1.439375
-238.266006	51.300999	1076.100952	1.693125	-5.324375	-3.246250
-211.304001	44.103001	1073.722046	0.520625	-2.931250	-3.014375
-221.125000	48.617001	1081.713013	0.835625	-2.970625	-3.898125
-223.503998	28.304001	1085.860962	0.323750	-8.106875	-4.423125
276.390991	108.275002	1118.739990	2.633750	0.091875	1.163750
269.803009	126.575005	1101.050049	4.011875	4.068750	2.848125
266.325989	107.360001	1103.001953	1.933750	1.470000	2.336250
265.472015	134.444000	1086.531982	1.929375	2.454375	1.789375
244.792999	126.209000	1094.645020	-1.522500	-0.284375	0.678125
247.354996	105.896004	1098.549072	-0.590625	1.281875	-0.301875
238.083008	24.521999	1243.729004	1.172500	1.671250	-0.555625
215.391006	-85.522003	1424.472046	-0.192500	-6.426875	3.259375
211.425995	-132.613998	1506.516968	10.281250	1.588125	15.645000
220.637009	-243.024002	1546.166992	14.656250	5.088125	30.712500
265.472015	-199.958008	1528.660034	26.350624	22.806875	42.192501
251.197998	-29.889999	1391.410034	22.168125	29.413124	42.647499
257.847015	35.685001	1327.969971	10.801875	41.947498	35.083126
322.446014	83.204002	1324.066040	3.325000	56.109375	29.378124
271.450012	50.874001	1239.214966	-3.180625	52.368752	32.536877
413.885010	47.945999	1296.128052	-10.298750	54.722500	25.917500
410.529999	137.615997	1207.250977	-15.785000	56.363125	22.605625
360.388000	102.723999	1192.794067	-16.235624	54.569374	26.893126
290.665009	270.351990	1105.015015	-24.237499	41.234375	31.386250
201.727005	218.867996	1028.093994	-21.376249	37.056252	34.422501
53.008999	307.806000	988.017029	-26.595625	53.869373	10.622500
0.061000	339.403992	919.087036	-34.055000	65.340622	5.932500
-12.810000	269.558990	926.528992	-36.675625	70.179375	15.671250
-149.266998	251.563995	845.216003	-31.491249	57.548752	26.464375
-77.348000	181.231003	912.987000	-22.675625	33.324375	35.231876
-81.618004	220.149002	786.900024	-0.507500	30.135000	24.959375
-80.641998	204.716003	796.965027	10.298750	31.473749	18.204374
-184.037003	163.541000	805.871033	11.121250	27.409374	14.008750
-221.490997	156.343002	814.533020	7.161875	19.788124	12.031250
-219.600006	151.768005	871.140991	2.743125	9.318750	7.861875
-240.401001	153.231995	862.234985	1.050000	6.702500	2.555000
-282.735016	160.979004	890.478027	-4.956875	5.079375	0.122500
-334.218994	74.359001	942.755005	-5.215000	-5.188750	5.770625
-311.161011	69.052002	989.054016	-8.391250	-11.256875	4.536875
-320.799011	54.778000	1016.382019	-2.454375	-13.658750	3.110625
-257.420013	33.489002	1066.097046	-1.780625	-28.070000	5.516875
-227.164001	48.922001	1130.146973	-3.893750	-28.498751	4.038125
-201.178009	59.779999	1113.982056	1.960000	-12.035625	2.751875
183.792999	-1.464000	1082.445068	15.946875	-23.086876	12.210625
215.818008	-4.636000	1088.301025	6.383125	-12.468750	10.307500
205.387009	-44.591000	1107.577026	-0.503125	-11.935000	7.227500
203.740005	-106.627998	1155.096069	2.931250	-12.670000	2.594375
210.145004	-52.399002	1173.213013	2.401875	-10.040625	-0.297500
248.331009	-156.221008	1291.308960	6.356875	-1.470000	-1.098125
179.401001	-202.154007	1460.339966	10.994375	4.186875	-2.366875
189.953995	-209.779007	1568.432007	11.935000	17.281250	15.732500
153.658997	-319.518005	1524.024048	23.660000	29.601250	39.935001
111.691002	-257.298004	1486.020996	21.459375	23.799999	58.953125
97.599998	-282.002991	1465.463989	29.631874	26.429375	64.964378
277.916016	-226.005005	1404.829956	51.852501	32.239376	46.703125
146.095001	12.261000	1316.197021	51.546249	40.836250	23.887501
221.673996	88.328003	1214.083008	22.662500	53.742500	16.384375
212.951004	127.306999	1069.573975	2.607500	51.331875	12.950000
167.750000	153.110001	1124.291016	-18.287500	41.951874	32.195625
216.854996	252.600998	1054.506958	-35.139999	38.517502	29.496250
66.551003	247.294006	970.692993	-30.231251	38.136875	19.985001
63.074001	234.117996	1069.635010	-29.001875	37.520000	12.770625
71.918999	254.796997	920.062988	-20.085625	51.025623	10.014375
-24.156000	266.692017	1005.096985	-41.702499	56.323750	30.773750
-87.718002	262.666016	975.145996	-57.505001	51.992500	37.375626
-195.199997	128.527008	902.861023	-56.389374	42.196877	48.645626
-68.014999	66.734001	979.171997	-45.390625	25.926250	37.760624
-164.944000	49.166000	897.309998	-18.186874	37.786877	30.957500
-157.074997	125.172005	879.254028	-3.631250	49.564377	30.743126
-230.518997	23.363001	933.239014	-0.656250	28.336876	25.121250
-212.402008	137.921005	896.151001	12.442500	10.941875	28.284374
-158.783005	73.444000	968.009033	13.496875	2.975000	21.398125
-170.251007	72.223999	963.434021	22.137501	9.016875	-0.161875
-291.824005	134.078003	947.208008	18.703125	13.072500	-7.840000
-285.175018	90.951004	963.067993	8.618750	10.014375	3.228750
-302.437988	108.397003	965.142029	6.965000	3.486875	-4.624375
-315.980011	80.153999	941.046997	-0.262500	7.437500	-2.384375
-358.619019	37.514999	989.054016	-0.931875	3.955000	-5.534375
-363.316010	44.225002	1016.138000	2.104375	-7.647500	-12.201875
-395.890015	86.498001	1030.411987	-2.581250	-6.737500	-3.259375
-385.032013	24.278000	1075.430054	1.461250	-8.776250	-1.251250
199.897003	73.566002	1096.414062	-0.848750	0.227500	2.572500
179.339996	57.340000	1119.899048	0.091875	0.122500	6.370000
167.078995	62.646999	1104.099976	1.592500	-0.091875	4.751250
151.279999	64.538002	1157.474976	2.660000	3.771250	5.525625
160.369003	40.931000	1178.458984	3.268125	1.483125	5.105625
141.520004	56.973999	1154.058960	3.666250	7.017500	6.300000
91.622002	-8.906000	1311.195068	1.649375	8.483125	11.742500
91.377998	-112.179001	1419.836060	-0.616875	2.572500	15.627500
36.539001	-233.081009	1557.452026	3.421250	10.889375	24.360001
16.469999	-242.231003	1554.280029	17.828125	25.217501	28.004375
51.667000	-183.731995	1513.104980	14.568750	22.343124	39.130001
42.395000	-170.800003	1431.182007	22.697500	16.025625	45.605000
80.825005	-30.012001	1377.928955	21.131250	19.543125	29.504999
94.306000	75.274002	1367.192993	3.119375	11.396875	24.281250
264.862000	102.236000	1278.987061	-0.083125	11.445000	34.986874
258.579010	147.376007	1190.171021	4.379375	33.341873	32.449375
263.580994	226.432007	1169.187012	-0.341250	48.396252	28.525000
164.029007	286.089996	1013.210022	-9.555000	70.599373	22.863750
158.783005	264.679016	1070.306030	-9.493750	82.131874	18.720625
81.618004	278.282013	937.509033	-15.220625	77.048126	24.093124
-52.033001	238.205002	896.639038	-16.423750	72.485001	21.778749
15.555000	262.605011	871.263000	-6.492500	54.293751	27.203751
-108.458000	178.181000	880.778992	0.896875	40.424999	31.119375
-92.475998	249.794998	855.525024	7.975625	31.193750	25.125626
-27.145000	276.330017	828.684998	8.054375	24.928749	18.514999
-185.074005	237.107010	787.205017	7.367500	32.506248	14.770000
-161.589005	281.332001	849.364014	1.995000	19.792500	8.964375
-240.096008	241.621002	857.476990	-4.567500	11.615625	8.430625
-254.613998	233.081009	879.559021	-7.927500	9.651250	11.011875
-268.033997	260.226013	852.353027	-10.504375	4.904375	9.988125
-309.087006	235.764999	880.473999	-8.448125	7.468125	12.775000
-286.639008	241.865005	899.689026	-6.978125	4.226250	8.570625
-365.268005	195.688004	949.953003	-7.809375	0.306250	7.183750
-291.213989	213.378006	993.202026	-15.330000	0.691250	9.428125
-365.695007	165.309998	1045.357056	-14.004375	1.360625	9.646875
-325.923004	145.423996	1087.020020	-7.848750	-8.308125	7.533750
-314.272003	130.783997	1102.880005	-3.850000	-9.970625	4.952500
-311.770996	121.939003	1089.338013	-3.150000	-2.528750	1.356250
169.458008	88.145004	1160.281006	0.577500	3.171875	-6.654375
164.395004	102.480003	1127.036011	3.088750	6.352500	-2.323125
183.671005	77.897003	1127.036011	1.430625	6.181875	0.586250
160.979004	85.460999	1111.176025	2.358125	6.798750	3.430000
146.522003	57.157001	1134.416992	1.575000	3.898125	4.011875
109.738998	-38.063999	1272.703979	4.410000	0.376250	5.656875
66.063004	-103.456001	1445.883057	12.346250	-0.936250	8.255625
35.380001	-232.471008	1554.157959	7.214375	2.690625	13.339375
33.184002	-295.484009	1623.515015	22.391251	11.641875	26.424999
79.178001	-253.638000	1563.979004	32.217499	29.793751	35.686874
133.041000	-178.973999	1507.859009	34.973751	40.766251	41.693748
