A_X[mg]	A_Y[mg]	A_Z[mg]	G_X[dps]	G_Y[dps]	G_Z[dps]	
55.205002	76.920998	1128.500000	-1.452500	-4.300625	6.505625
47.885002	68.014999	1114.958008	-1.452500	-4.300625	4.357500
47.885002	41.174999	1127.645996	-0.848750	-4.427500	4.357500
62.341999	41.174999	1127.645996	-0.096250	-1.181250	5.057500
44.774002	29.097000	1114.469971	1.929375	-0.721875	5.403125
44.042000	47.091999	1103.795044	4.685625	-0.905625	3.535000
14.640000	-118.278999	1153.327026	11.760000	2.008125	4.812500
50.202999	-396.988007	1129.049072	18.462500	-7.118125	6.943125
12.383000	-432.734009	1121.973022	30.038750	-6.912500	15.448125
25.375999	-421.388000	1063.291016	33.976250	17.066875	24.281250
-27.877001	-255.468002	1063.108032	39.466873	23.016874	35.945000
-59.535999	-111.203003	1096.170044	33.525623	3.946250	47.578125
45.750000	-129.563995	1135.026978	14.376250	-8.365000	58.769375
170.434006	-28.365000	1145.031006	-2.730000	-21.975624	63.258125
246.806000	20.679001	1185.412964	-9.161250	-20.654375	61.280624
287.675995	190.930008	1190.781006	-31.346874	-17.141251	54.429375
257.420013	341.112000	1107.881958	-34.956249	-3.342500	45.101875
219.173004	331.778992	1105.686035	-32.493126	10.255000	35.625626
191.113007	291.763000	1112.945068	-19.792500	19.521250	19.569374
104.737000	357.643005	1020.408020	-24.342501	22.194374	15.207500
145.363007	264.739990	1225.307007	-21.870625	0.450625	16.533125
222.040009	226.859009	1114.958008	2.301250	-7.730625	23.069374
188.001999	357.643005	1125.937988	-4.060000	-8.645000	35.700001
189.466003	226.615005	1142.041992	3.451875	-25.243750	34.995625
260.774994	337.696014	1085.860962	-2.765000	-21.686874	34.457500
200.811996	306.463989	1100.927979	-13.251875	-25.690001	34.098751
292.067993	166.408005	1118.678955	-14.245000	-22.570625	24.268126
232.288010	210.206009	1108.308960	-13.020000	0.061250	10.727500
185.074005	114.070000	1111.847046	-3.053750	5.783750	4.313750
205.387009	147.132004	1070.489014	1.211875	10.154375	-5.595625
110.166000	76.555000	1090.375000	7.271250	8.798125	-9.944375
201.788010	134.565994	1147.410034	20.020000	-8.942500	-13.956250
162.565002	171.348999	1073.539062	13.055000	3.850000	-8.369375
148.352005	135.175995	1112.578979	4.571875	10.530625	-4.431875
112.728004	92.780998	1104.526978	-2.104375	8.238125	-6.558125
115.167999	94.306000	1119.593994	-2.511250	5.096875	-10.386250
119.133003	114.009003	1119.105957	-3.570000	0.678125	-11.961250
100.405998	110.898003	1133.624023	-5.197500	1.133125	-7.153125
46.726002	5.429000	1114.592041	1.745625	-1.513750	4.602500
38.125000	11.651000	1128.622070	-0.105000	-2.471875	1.216250
23.424000	-12.383000	1113.859985	3.268125	2.209375	0.783125
21.594000	10.187000	1113.738037	2.078125	3.058125	1.155000
14.945000	4.453000	1109.833984	2.550625	2.244375	0.599375
2.867000	-52.764999	1125.083984	4.851875	5.718125	-4.598125
0.122000	-235.154999	1130.635010	12.661250	-0.004375	-13.531875
-20.130001	-416.080994	1147.776001	20.251875	-2.458750	-12.040000
-116.510002	-454.755005	1113.128052	19.595625	16.786875	-6.195000
-96.929001	-452.619995	1082.018066	27.930000	20.133751	-0.892500
-63.867001	-382.897003	1055.483032	35.796249	3.666250	10.631250
-35.380001	-266.143005	1057.251953	41.431252	1.168125	25.991875
-20.862000	-121.084999	1101.660034	31.718750	0.210000	32.466873
71.980003	-87.047005	1121.973022	17.793125	-12.801250	35.752499
112.667000	132.369995	1152.534058	8.618750	-16.218124	40.201874
93.818001	116.510002	1142.591064	-0.503125	3.180625	35.892502
294.873993	124.135002	1165.526978	-1.522500	-3.136875	31.469376
104.554001	287.737000	1122.827026	-5.827500	3.233125	24.661875
100.040001	415.471008	1145.640991	-27.488125	14.721875	29.666876
178.119995	291.458008	1217.864990	-37.966251	14.315000	41.523125
165.859009	332.632996	1141.920044	-48.790001	18.620001	39.497501
30.683001	240.584000	1173.274048	-44.380001	26.298124	38.535000
136.152008	277.610992	1063.962036	-25.943750	13.396250	40.971874
-42.151001	217.281998	1123.010010	-13.470625	12.136250	47.753124
75.701004	308.294006	1196.576050	-1.920625	-11.278750	29.920626
79.361000	267.972992	1079.516968	0.310625	-21.271250	25.055626
52.764999	256.382996	1082.445068	0.105000	-12.495000	23.891874
-38.674000	168.421005	1091.838989	-8.728125	-3.963750	3.867500
-59.475002	100.345001	1162.233032	-5.630625	-12.468750	0.096250
4.758000	95.526001	1242.875000	12.306875	-27.387501	-1.010625
122.305000	118.401001	1153.571045	19.573750	-23.091249	-19.744375
61.610001	177.143997	1135.576050	24.298750	-1.841875	-18.108126
55.205002	266.082001	1158.817017	16.187500	16.734375	-13.628125
9.760000	249.001999	1078.602051	5.674375	20.615000	-11.703125
-35.014000	163.053009	1070.123047	-2.782500	21.017500	-3.101875
-21.472000	141.703003	1044.869019	2.804375	9.896250	2.200625
-36.844002	58.865002	1047.919067	-1.946875	13.085625	2.485000
-53.313999	78.140999	1095.560059	3.014375	-0.148750	4.755625
162.748001	5.246000	1144.359985	-0.236250	-1.618750	5.101250
147.619995	23.241001	1123.315063	-0.415625	-1.815625	3.456250
141.581009	29.707001	1118.008057	-1.098125	1.461250	5.061875
119.864998	1.769000	1102.758057	-3.342500	3.325000	7.118125
93.513000	12.078000	1104.953979	-4.116875	0.345625	7.599375
103.700005	-92.292999	1114.958008	0.984375	0.218750	4.720625
133.223999	-192.820999	1116.300049	8.010625	1.120000	2.349375
77.897003	-318.175995	1114.713989	10.071250	3.272500	3.998750
80.459000	-389.119019	1069.573975	10.784375	13.715625	9.751875
101.077003	-375.515991	1077.321045	13.230000	11.173750	20.680626
144.936005	-408.089996	1075.796021	7.695625	4.418750	39.974377
209.108002	-355.203003	1135.088013	6.995625	3.543750	44.134998
61.915001	-183.731995	1079.029053	-4.326875	14.831250	49.595001
183.488007	-209.169006	1102.818970	-20.212500	16.616249	50.417500
82.532997	-129.686005	1107.333008	-27.326250	-8.942500	54.823124
95.038002	-152.317001	1144.055054	-16.764999	-35.840000	56.984375
265.593994	-26.352001	1104.405029	-6.247500	-37.021252	42.393749
289.445007	134.139008	1071.891968	-3.469375	-22.421875	38.342499
339.830994	166.529999	1180.349976	7.848750	-5.083750	23.821875
275.720001	148.108002	1159.975952	12.481875	8.881250	23.655624
322.201996	254.736008	1307.779053	22.308125	14.441875	37.073750
291.701996	310.307007	1225.001953	14.144375	4.392500	33.888748
229.604004	331.291016	1199.687012	7.205625	2.432500	37.931252
236.985001	284.381989	1156.010986	11.151875	-2.891875	35.713123
246.867004	322.140991	1036.695068	9.384375	-9.695000	26.232500
192.210999	317.932007	1039.744995	-0.945000	-8.793750	16.699375
201.971008	307.744995	1077.198975	-2.629375	-3.793125	3.298750
119.926003	282.490997	1057.739990	1.220625	-1.015000	-5.101250
105.408005	243.085007	1064.999023	-1.413125	4.383750	-1.260000
70.272003	156.587006	1078.968018	3.460625	4.773125	-7.708750
81.984001	129.014999	1088.057007	5.560625	1.015000	-9.821875
113.216003	92.780998	1125.876953	3.298750	-8.400000	-11.908750
119.011002	59.292000	1121.546021	2.275000	2.686250	-9.992500
122.915001	46.542999	1118.251953	0.577500	2.782500	-8.435000
142.190994	14.762000	1118.495972	-0.026250	-4.309375	-7.700000
139.080002	47.458000	1116.787964	0.201250	0.450625	-4.611250
154.330002	16.836000	1098.854004	-1.583750	-1.111250	-4.055625
149.938004	34.403999	1103.062988	-2.712500	-3.329375	-5.757500
268.765991	-45.567001	1121.667969	4.431875	-2.598750	8.303750
250.100006	-22.264999	1100.623047	4.637500	1.273125	8.990625
259.311005	-48.861000	1093.791016	4.318125	0.157500	11.668125
231.373001	-36.722000	1088.605957	4.318125	0.157500	12.136250
231.373001	18.361000	1079.029053	7.796250	-1.229375	12.136250
230.214005	18.361000	1079.029053	8.413125	-0.196875	9.699375
214.354004	-152.378006	1121.057983	12.337500	-2.283750	14.043750
310.916992	-370.391998	1100.013062	26.004999	-19.254375	10.710000
299.205017	-405.040009	1001.619995	38.101875	-7.721875	17.128124
213.682999	-355.813019	974.718994	31.285625	23.738750	27.247499
187.209000	-279.623993	1018.822021	13.912500	24.508751	27.728750
201.421997	-297.679993	1117.825073	6.037500	5.630625	37.458752
324.398010	-229.421005	1083.604004	-5.302500	-1.964375	28.113750
224.419006	-79.422005	1124.839966	-8.203125	-11.974375	26.486250
469.212006	-78.080002	1116.727051	-13.120625	-25.711876	30.327499
423.339996	29.280001	1154.912964	-3.180625	-24.714375	38.386250
457.438995	111.325005	1128.805054	17.018749	-26.775000	53.305000
450.851013	259.554993	1057.801025	1.990625	-9.957500	50.500626
354.044006	341.295013	1063.656982	-8.728125	-2.677500	48.877499
490.928009	360.815002	1108.858032	-10.066875	-15.745625	54.810001
440.908020	220.454010	1096.230957	-9.380000	-15.194375	60.921875
559.309021	221.186005	1091.229004	-1.815625	-14.249375	40.634998
494.466003	220.576004	1078.906982	14.818125	2.795625	19.783751
461.770020	315.919006	1086.227051	21.726250	14.949375	15.929375
319.518005	267.302002	1088.118042	21.844376	18.370625	22.649376
352.580017	261.873016	1085.556030	22.588125	23.979376	28.643126
283.588989	218.563004	1041.331055	4.326875	23.358126	8.960000
205.203995	150.487000	1041.514038	-4.497500	9.782500	5.324375
257.359009	124.745003	1056.885986	-0.503125	-12.460000	3.053750
260.531006	45.872002	1090.436035	2.913750	-7.949375	5.018125
343.369019	45.628002	1094.523071	11.856250	-2.471875	1.557500
309.269989	46.848000	1082.811035	14.818125	0.336875	1.968750
336.842010	98.881004	1060.607056	9.699375	4.169375	0.113750
274.865997	50.630001	1057.374023	3.749375	11.746875	0.354375
292.617004	79.788002	1048.529053	2.270625	5.910625	-2.489375
248.941010	53.008999	1047.614014	-3.386250	0.293125	-3.482500
270.535004	40.931000	1074.088013	-5.359375	-0.013125	-0.560000
214.903000	-18.910000	1110.139038	-6.820625	-2.769375	1.666875
-5.978000	-94.672005	1041.880005	-19.722500	12.210625	-12.162500
-33.000999	-162.565002	1101.294067	-14.437500	8.264375	-8.719375
-25.071001	-63.135002	1071.160034	-4.900000	2.751875	-4.130000
9.943000	-98.087997	1050.786011	2.782500	3.206875	0.070000
-7.198000	-92.903000	1073.661011	8.015000	0.516250	5.678750
2.867000	-287.127014	1128.072998	13.142500	-2.716875	8.990625
-19.459000	-255.346008	1091.777954	18.340000	2.336250	5.481875
44.042000	-500.139008	1109.773071	10.508750	9.576875	9.471875
-27.145000	-433.527008	1093.729980	12.398750	4.803750	15.001875
-2.379000	-379.725006	963.007019	17.325001	11.659375	17.250626
19.580999	-540.765015	1050.359009	15.430625	16.708124	32.401249
58.255001	-324.886017	1067.011963	18.821251	-8.290625	43.308125
47.153000	-342.942017	1054.750977	11.681250	3.377500	55.055000
24.827000	-179.889008	1221.586060	-14.113750	-1.798125	60.361874
282.368988	-235.764999	1163.331055	-29.561874	-34.951874	74.046875
111.020004	-3.782000	1268.556030	-37.493752	-59.626877	81.904373
304.817017	156.709000	1185.962036	-36.618752	-50.798126	51.126251
451.583008	48.678001	1222.013062	-12.849375	-25.077499	76.387497
258.457001	234.484009	1238.300049	20.304375	9.205000	85.557503
127.185005	289.079010	1208.654053	6.059375	25.725000	86.183128
288.102997	255.834000	1359.446045	-13.610625	15.019375	81.948128
246.135010	158.600006	1188.280029	-10.683750	16.454374	74.086250
154.695999	209.656998	1126.182007	-6.457500	18.825624	75.661247
167.994003	128.466003	1202.432007	12.678750	-8.421875	57.531250
172.081009	283.040009	1075.917969	28.800625	-3.163125	26.481874
51.056999	322.506989	1045.661987	35.481251	-2.808750	24.294374
48.190002	347.882996	1053.409058	12.687500	-5.709375	34.982498
41.785000	369.233002	985.088989	0.201250	-6.746250	19.827499
-90.341003	198.494003	1052.555054	-11.821250	-11.200000	11.891250
50.386002	263.032013	1100.806030	-3.412500	-28.546875	1.395625
60.817001	162.686996	1078.052979	4.624375	-30.730000	-12.451250
76.982002	243.024002	1112.578979	8.229375	-23.458750	-14.533750
87.047005	177.388000	1163.087036	10.736250	-23.764999	-12.578125
137.311005	203.496002	1174.859985	12.630625	2.240000	-0.266875
76.494003	96.136002	1161.683960	8.019375	9.725625	10.631250
105.042000	48.922001	1127.645996	2.480625	11.707500	11.204375
83.021004	66.368004	1113.738037	0.735000	13.116250	-0.503125
81.129997	32.208000	1108.979980	-2.926875	11.423125	-3.167500
104.493004	-4.880000	1120.936035	3.101875	0.253750	7.778750
79.848999	29.951000	1120.082031	0.958125	1.251250	5.053125
115.107002	-10.919000	1112.945068	-0.573125	-1.246875	5.709375
72.163002	7.625000	1100.989014	0.975625	1.299375	5.232500
72.101997	21.960001	1102.026001	1.990625	1.596875	7.651875
91.439003	-21.289000	1129.719971	3.119375	-3.766875	9.275000
97.417000	-239.852005	1160.829956	11.646250	-4.939375	8.526875
117.913002	-374.967010	1125.816040	13.317500	-0.813750	11.361875
173.910995	-473.908997	1102.331055	7.896875	2.594375	12.740000
115.473000	-417.423004	1073.966064	4.046875	-1.373750	8.111250
207.643997	-276.696014	1063.535034	6.365625	-10.399375	10.657500
163.602005	-199.958008	1083.909058	10.298750	-14.791875	29.876875
201.361008	-63.074001	1102.818970	15.680000	-29.833124	32.733749
203.007996	35.196999	1124.169067	19.486250	-33.066250	39.471249
235.094009	97.112000	1159.915039	11.598125	-14.958125	42.800625
245.951996	209.046997	1129.232056	8.102500	11.746875	38.937500
233.141998	203.496002	1149.545044	10.399375	29.758751	47.411877
209.656998	246.684006	1115.446045	14.573125	33.131874	44.782501
115.290001	229.238007	1061.704956	8.067500	34.768124	53.878124
171.348999	282.247009	1121.790039	-1.509375	17.482500	57.531250
168.725998	331.412994	1084.275024	0.721875	1.356250	37.441250
123.098000	368.013000	1099.829956	-1.408750	3.596250	32.200001
113.033005	370.636017	1122.704956	-2.353750	-0.630000	26.009375
62.952000	303.657990	1122.765991	-2.576875	-2.533125	14.866250
67.892998	278.709015	1102.514038	-7.673750	4.178125	9.743125
73.504997	248.514008	1083.482056	-1.798125	-4.528125	5.967500
55.144001	197.639999	1101.843018	1.190000	-7.161875	3.263750
56.852001	184.098007	1065.791992	5.241250	-1.631875	-2.607500
4.575000	92.720001	1113.372070	5.621875	2.550625	-1.785000
88.266998	122.366005	1138.808960	11.182500	-7.091875	-3.775625
82.044998	139.568008	1103.124023	9.870000	-14.266875	-4.886875
140.544006	147.803009	1134.722046	7.319375	-9.603125	-6.238750
102.297005	120.231003	1147.044067	3.237500	-4.445000	-5.648125
151.707001	112.423004	1139.785034	1.741250	-2.681875	-0.253750
110.105003	58.865002	1116.604980	0.476875	-2.143750	-2.095625
141.154007	77.287003	1129.719971	0.511875	2.187500	-3.395000
85.583000	52.643002	1120.753052	1.413125	0.109375	-3.215625
121.572998	59.841000	1141.859009	3.644375	-0.013125	0.328125
85.400002	-146.888000	1116.971069	-8.041250	1.828750	-11.646250
80.336998	-112.056999	1125.510986	2.896250	-10.333750	-8.106875
80.641998	-77.530998	1118.312988	11.274375	-7.783125	-3.202500
50.386002	-27.511000	1134.599976	11.274375	-4.011875	0.555625
60.084999	-71.736000	1143.322998	13.466250	-4.011875	0.555625
60.084999	-71.736000	1143.322998	10.823750	-10.815000	5.455625
83.997002	-83.387001	1147.348999	10.675000	-3.465000	6.982500
183.671005	-344.588989	1218.353027	15.386875	-8.386875	-3.810625
172.324997	-475.494995	1068.659058	16.668751	0.643125	-5.241250
62.464001	-428.220001	979.965027	11.340000	29.483126	5.971875
136.762009	-577.487000	1013.637024	12.643750	29.946875	9.848125
-3.294000	-329.278015	1012.966003	15.623125	7.520625	20.558125
108.153000	-312.808014	989.846985	9.616250	-1.697500	16.883125
135.054001	-246.135010	1035.047974	8.898750	-11.781875	48.203751
-17.385000	15.128000	1146.617065	-17.014376	-22.662500	37.506874
204.167007	-134.261002	1149.484009	-18.615625	-36.889999	34.111874
515.815979	-244.732010	1237.812012	-9.406250	-39.230625	54.884377
154.085999	52.643002	1213.717041	-7.070000	0.581875	31.526251
272.121002	6.588000	1126.609009	4.777500	3.583125	51.152500
349.286011	59.353001	1164.916992	11.681250	1.618750	69.435623
197.212997	80.336998	1163.148071	11.515000	15.588125	64.364998
284.687012	141.276001	1189.622070	-10.723125	17.233126	60.025002
221.917999	92.720001	1092.144043	-31.241875	21.774376	56.866249
111.020004	75.517998	1155.339966	-39.611252	34.466251	56.980000
161.833008	78.873001	1234.151978	-16.025625	17.963751	35.314999
43.126999	201.544006	1114.286987	9.073750	20.488125	44.703751
42.944000	299.449005	1180.166992	20.855625	30.848125	54.796875
-9.821000	299.265991	1152.838989	26.635000	9.030000	50.575001
7.076000	413.885010	1143.445068	29.570625	-13.720000	50.710625
-19.337000	346.053009	1005.768005	21.113750	-14.245000	50.855000
-30.316999	346.723999	1039.256958	18.322500	1.347500	44.064999
-25.681000	304.450989	1045.234985	21.555626	-10.443125	27.785625
16.226000	187.453003	1033.401001	20.225624	-12.451250	13.689375
-7.747000	175.375000	1101.721069	17.911249	-19.591249	1.802500
27.389000	104.981003	1141.859009	17.456249	-23.695000	3.088750
104.431999	137.371994	1125.450073	17.898125	-21.665001	-0.962500
10.492001	110.348999	1178.214966	14.835625	-16.384375	-1.566250
76.189003	129.259003	1174.738037	15.583750	-11.974375	0.437500
-10.675000	44.529999	1137.954956	-16.568125	-18.711876	-33.306873
92.903000	5.551000	1107.760010	-26.061874	-23.874374	-24.981251
68.869003	35.868000	1080.980957	-33.289375	-31.049376	-16.764999
154.268997	54.473000	1123.131958	-16.406250	-27.387501	-9.397500
210.999008	-58.194000	1032.669067	20.181875	5.726875	-13.811875
174.033005	-3.721000	1083.909058	74.593750	30.747499	-2.279375
4.636000	80.459000	1180.655029	63.695625	18.427500	-10.167500
153.048996	-227.774002	1092.448975	33.915001	-18.143126	17.854376
168.481995	-94.855003	1126.853027	15.303750	-30.686251	24.981251
221.369003	-191.540009	1042.551025	17.189375	-1.369375	16.786875
125.538002	-58.987000	1070.427979	27.689375	7.087500	7.113750
297.924011	-64.111000	1069.329956	15.277500	-6.391875	9.065000
287.981018	63.135002	1087.812988	3.338125	-9.843750	9.104375
435.356995	82.167000	1093.302979	15.815625	9.126250	16.576876
355.386017	239.669006	1143.201050	20.754999	3.049375	40.446877
316.528992	323.239014	1134.051025	5.775000	-8.448125	45.771252
356.179016	325.130005	1167.906006	-10.963750	-9.852500	62.020000
306.097992	400.037994	1122.156006	-11.659375	-2.541875	58.441250
192.210999	268.095001	1194.014038	-28.962500	-19.941250	43.767502
459.269012	405.649994	1145.092041	-28.371876	-8.763125	32.322498
426.024017	383.019012	1191.452026	-6.912500	9.423750	13.593125
379.541992	602.741028	1135.636963	22.907499	22.518126	4.987500
148.352005	519.963989	978.440002	5.057500	52.915627	6.304375
92.537003	563.518005	1040.171997	-14.997500	66.150002	18.484375
85.460999	545.950012	854.000000	-8.710625	41.667500	15.736875
94.855003	570.044983	947.817993	-0.498750	23.931250	16.082500
217.038010	632.814026	1082.018066	15.933750	-6.330625	11.751250
157.501999	499.407013	921.954041	16.428125	1.071875	11.073125
146.216995	477.691010	1030.167969	7.756875	22.338751	7.105000
52.704002	431.514008	991.554993	11.375000	20.890625	2.139375
50.751999	329.583008	994.848999	8.522500	15.911875	0.861875
27.145000	252.906006	1013.759033	6.199375	8.106875	-2.795625
64.721001	261.140991	1081.713013	1.933750	3.670625	-1.684375
36.904999	223.931000	1078.479980	0.577500	-3.088750	-6.221250
72.285004	263.825012	1115.385010	0.608125	-4.948125	-7.087500
52.582001	238.936996	1102.453003	3.710000	-7.673750	-2.673125
111.996002	270.351990	1135.453979	4.974375	-4.326875	-1.846250
55.570999	278.587006	1108.675049	5.363750	-2.397500	-1.583750
69.295998	124.195999	1101.781982	-1.596875	-2.213750	-2.795625
91.682999	145.485001	1111.359009	-1.645000	-3.574375	-0.923125
50.691002	113.094002	1100.623047	0.223125	-0.100625	-2.135000
62.830002	146.826996	1101.294067	2.003750	-7.415625	1.360625
79.300003	55.632000	1118.374023	-0.573125	-7.105000	5.875625
91.377998	-24.521999	1140.516968	8.172500	-0.568750	-2.996875
94.367004	-125.721001	1171.200073	18.720625	-4.440625	-5.184375
182.634003	-324.337006	1252.756958	17.128124	1.833125	-5.460000
158.660995	-354.898010	1187.060059	8.671250	20.028749	-8.382500
161.833008	-350.933014	1121.667969	7.743750	23.638124	-7.437500
45.201000	-229.848007	1121.057983	14.420000	7.756875	-4.081875
220.880997	-108.945999	1197.917969	6.728750	-11.659375	8.443750
