A_X[mg]	A_Y[mg]	A_Z[mg]	G_X[dps]	G_Y[dps]	G_Z[dps]	
230.091995	-92.232002	1094.889038	2.725625	-9.520000	-4.121250
245.951996	-82.349998	1092.631958	2.568125	-5.744375	-3.071250
229.482010	-81.374001	1088.484009	2.506875	-2.716875	-0.621250
231.921997	-89.609001	1116.910034	2.253125	-6.330625	-0.078750
233.751999	-32.695999	1186.266968	2.918125	-9.979375	-1.820000
228.505997	114.375000	1438.441040	-4.475625	-8.859375	3.246250
198.738007	200.263000	1779.248047	-11.777500	-0.857500	11.274375
175.619003	324.519989	1867.332031	-11.694375	5.241250	15.793750
177.753998	332.755005	1830.671021	-1.561875	26.998125	0.945000
242.475006	267.302002	1650.598999	16.388750	49.503124	-18.453751
291.458008	333.731018	1662.494019	9.515625	70.148750	-44.721249
516.853027	102.846001	1433.317017	-14.315000	92.771873	-26.258751
325.862000	-63.623001	1199.138062	-2.817500	128.576874	-10.355625
205.509003	-212.829010	1186.083984	-3.014375	103.101250	-23.961876
180.987000	-268.949005	961.908997	19.000626	41.422501	-33.954376
170.128998	-141.337006	884.866028	34.781250	22.824375	-68.967499
125.843002	-245.525009	724.924011	30.970625	24.902500	-82.263123
85.948997	-220.027008	741.882019	31.342501	21.949375	-79.165627
63.257000	-204.472000	700.096985	26.617500	27.934376	-72.148125
-89.121002	-169.884995	791.414001	14.765625	41.973751	-62.562500
-84.119003	-235.947998	770.247009	1.400000	16.830626	-50.566250
-184.037003	-195.992996	783.362000	-2.209375	12.477500	-41.212502
-62.952000	-275.720001	759.267029	-10.801875	18.965626	-43.474377
-139.445999	-280.112000	795.135010	-9.594375	0.358750	-18.716249
-158.844009	-248.391998	780.556030	-10.718750	14.218750	-25.112499
-231.128998	-195.626999	868.091003	-13.308750	11.383750	-12.656875
-195.261002	-190.380997	913.780029	-8.233750	3.220000	-10.294375
-285.846008	-140.727005	978.074036	-13.041875	10.981250	-8.592500
-236.009003	-161.040009	1000.460999	-10.640000	6.601875	1.789375
-327.692017	-154.391006	1041.331055	-3.381875	1.754375	-3.045000
-250.466003	-148.169006	1030.717041	-0.848750	-4.585000	-1.596875
-265.350006	-135.908005	1056.641968	4.033750	-11.707500	-3.631250
-197.822998	-120.902000	1072.258057	3.224375	-16.178749	-4.952500
-201.178009	-120.779999	1099.098022	-0.153125	-15.343125	-4.130000
-168.725998	-117.668999	1098.975952	-0.756875	-11.068750	-4.733750
-201.056000	-94.367004	1089.643066	-3.670625	-6.133750	-0.966875
194.895004	103.028999	1181.020996	0.546875	-18.987499	6.619375
186.477005	66.184998	1177.910034	0.905625	-8.964375	-2.480625
157.929001	78.080002	1131.550049	5.740000	-4.838750	-6.938750
177.815002	81.923004	1125.510986	3.320625	-15.916250	-5.228125
215.147003	46.726002	1153.144043	4.956875	-21.953751	-3.325000
217.160004	87.413002	1147.471069	4.033750	-9.082500	-4.217500
189.404999	127.551003	1165.526978	4.541250	-6.737500	-3.093125
154.940002	183.975998	1286.978027	4.580625	-2.498125	0.840000
148.291000	312.015015	1476.260986	-1.413125	7.791875	5.950000
77.287003	353.373016	1610.217041	-12.337500	12.906250	10.119375
-10.431000	394.548004	1680.977051	-28.988750	12.722500	11.208750
11.529000	482.510010	1596.187012	-46.908749	17.119375	16.983749
83.447998	296.459991	1540.921021	-66.670624	9.012500	23.235624
285.358002	117.913002	1316.928955	-59.167500	18.217501	18.208750
139.141006	113.582001	1222.073975	-28.866249	36.093750	-7.931875
268.826996	96.258003	1186.693970	-22.316875	25.195625	-23.730000
353.739014	54.473000	1128.195068	-5.311250	46.619999	-30.633751
193.309006	53.192001	1134.295044	3.303125	67.287498	-42.424374
250.587997	-107.665001	1137.344971	6.693750	39.221874	-38.889374
164.272995	-142.862000	1158.328979	10.710000	16.261875	-38.771252
304.877991	-202.520004	1090.619019	20.982500	13.483750	-45.093124
250.283005	-216.916000	1029.802002	18.843124	20.851250	-47.403126
157.380005	-206.057999	877.606995	15.251250	41.221249	-38.941875
43.126999	-152.438995	909.265991	6.291250	38.325001	-45.941875
19.703001	-215.330002	788.913025	-16.340626	29.995001	-33.845001
-60.512001	-149.022995	837.713013	-16.935625	29.859375	-26.862499
-16.592001	-288.652008	806.054016	-9.187500	18.830000	-18.825624
-35.136002	-228.872009	763.293030	-10.521875	18.055626	-21.345625
-86.620003	-272.364990	807.152039	-1.400000	16.834999	-15.001875
-49.105000	-297.009003	802.882019	4.060000	4.738125	-16.104376
39.771999	-221.063995	854.793030	1.605625	-0.984375	-3.718750
-221.430008	-144.326004	975.268005	2.913750	4.900000	14.525000
-284.260010	-203.434998	1001.070984	-2.655625	19.735624	-0.665000
-301.218018	-169.763000	996.496033	-17.211250	14.463750	-5.582500
-191.052002	-185.195999	1027.605957	-12.950000	-1.990625	-4.396875
-167.567001	-173.850006	999.484985	-9.638125	-5.390000	-4.182500
-197.518005	-149.999008	1045.296021	-5.840625	1.723750	5.783750
-196.664001	-159.270996	1055.544067	-2.056250	-5.035625	0.595000
69.967003	201.848999	1196.942017	25.825624	-49.533749	-15.723750
61.792999	302.498993	1264.347046	21.520624	-48.829376	-15.627500
159.514999	259.677002	1192.244995	16.060625	-39.068748	-6.238750
153.292999	269.681000	1221.952026	7.100625	-22.999374	-3.666250
183.488007	215.635010	1167.723022	-1.491875	-4.646250	-1.973125
187.574997	186.964996	1137.771973	-0.831250	8.881250	3.469375
155.428009	155.916000	1160.036987	6.925625	9.541875	2.633750
99.979004	209.413010	1172.297974	14.157500	-0.621250	1.973125
101.992004	295.545013	1221.098022	12.871250	-6.457500	0.984375
118.461998	427.915009	1309.182007	12.871250	-6.457500	0.984375
118.461998	427.915009	1374.756958	0.297500	-4.099375	0.367500
115.900002	474.701996	1374.756958	-5.394375	8.605625	1.513750
50.142002	573.705017	1445.639038	-15.968750	17.998751	-1.365000
122.975998	605.851990	1394.947998	-25.860624	29.378124	-3.640000
65.209000	571.692017	1424.228027	-24.478125	33.840626	1.623125
185.684006	366.488007	1439.722046	-18.090626	42.866249	0.966875
114.131004	409.920013	1263.920044	-9.541875	69.173126	-31.714375
-66.917000	271.694000	1267.640991	-16.056250	80.447502	-46.431873
-10.370000	12.871000	1271.666992	-19.131874	76.138123	-11.738125
-108.335999	54.656002	1251.476074	-9.870000	70.061249	-19.569374
-123.708000	37.453999	1211.520996	-12.088125	50.168125	-42.030624
-49.776001	-29.768000	1163.391968	-6.321875	-3.408125	-45.430000
-32.208000	15.616000	1099.586060	-3.377500	-21.328125	-57.421875
-75.701004	55.937000	1129.719971	3.233125	-7.336875	-65.992500
119.743004	-17.750999	961.238037	-13.453125	9.051875	-48.763748
-22.570000	-48.556000	945.377991	-20.829374	28.730625	-40.026875
-14.945000	-115.900002	917.989014	0.140000	23.782499	-38.447498
25.925001	-168.055008	807.030029	16.213751	6.155625	-23.651251
-209.962006	-56.181000	888.343018	15.054375	8.036875	-28.131250
-37.088001	-137.371994	816.973022	3.434375	6.470625	-31.885000
-93.025002	-88.206001	899.932983	2.226875	-6.479375	-14.000000
-108.458000	-176.350998	825.635010	1.806875	10.014375	-24.184999
-239.791000	-2.501000	902.678040	-3.368750	8.658125	-26.735624
-95.586998	-143.716003	880.656982	-5.617500	-7.555625	-16.773750
-200.263000	-66.856003	959.530029	-6.321875	1.198750	-13.111875
-145.850998	-181.352997	930.494019	-12.827500	1.216250	-3.981250
-255.712006	-130.845001	1003.083984	-14.297500	8.190000	2.135000
-215.268997	-182.755997	984.540039	-12.613125	16.397499	-1.841875
229.298996	206.302002	1135.332031	-5.954375	-28.463751	10.648750
250.039001	245.403000	1214.144043	6.545000	-39.081875	6.098750
269.071014	208.070999	1167.174072	20.553749	-40.827499	0.210000
249.124008	284.503998	1316.318970	22.828751	-38.333752	-3.145625
266.813995	201.117004	1337.912964	24.801874	-29.610001	9.926875
275.170990	288.225006	1311.438965	28.393749	-15.229375	10.443125
242.048004	285.968018	1205.482056	15.526875	4.011875	4.007500
122.670998	387.166992	1273.740967	-3.583125	21.157499	0.962500
97.173004	539.606018	1462.353027	-17.981251	20.391874	-2.581250
125.293999	799.221985	1612.046997	-24.268126	13.256250	-4.764375
115.717003	787.083008	1591.245972	-26.158125	15.662500	-0.660625
228.932999	692.716003	1590.391968	-31.963751	33.481876	0.542500
191.356995	548.390015	1518.838989	-36.259998	50.430626	-7.813750
237.533997	377.589996	1416.724976	-24.692499	70.866249	-16.738750
370.087006	239.852005	1423.557007	-15.715000	82.923752	-12.915000
239.425003	-17.141001	1186.572021	9.681875	84.826874	-22.688749
252.662003	116.448997	1253.977051	24.850000	52.535000	-33.547501
133.772995	-80.215004	1058.045044	14.958125	30.773750	-41.588749
84.424004	-48.068001	1004.975037	10.399375	47.578125	-68.258751
29.219000	-60.451000	986.004028	-8.741250	45.526249	-72.371246
48.983002	-115.350998	843.020020	-16.450001	39.046875	-59.583126
58.865002	-153.048996	828.257996	-5.963125	43.006248	-51.082500
-17.202000	-158.600006	719.921997	2.043125	27.133751	-37.183125
-64.416000	-228.567001	723.277039	13.895000	24.106251	-20.733126
-93.025002	-190.747009	750.544006	20.155624	22.776251	-24.154375
-209.656998	-213.438995	734.317993	11.305000	15.946875	-24.368750
-252.235001	-60.633999	779.213989	5.923750	21.945000	-21.638750
-215.635010	-84.119003	780.799988	-2.940000	19.735624	-15.106875
-340.868011	-27.632999	838.994019	-14.096250	9.738750	-15.435000
-288.225006	-33.244999	882.059998	-20.125000	-2.126250	-8.277500
-365.145996	-81.984001	975.877991	-16.038750	-8.128750	-9.533125
-323.544006	-88.876999	1005.523987	-14.840000	-12.499375	-9.734375
-308.660004	-76.494003	1047.979980	-10.491250	-9.511250	-6.558125
-279.014008	-61.610001	1089.582031	-4.138750	-11.764375	-5.884375
-292.921997	-76.737999	1092.327026	-1.824375	-6.339375	-4.606875
-295.850006	-24.217001	1140.089966	-1.890000	-10.425625	-10.460625
-237.656006	-12.444000	1098.061035	-5.005000	-10.473750	-6.273750
-227.408005	-52.033001	1113.494019	-8.299375	-0.170625	2.401875
126.026001	155.854996	1088.666992	10.915625	10.915625	-8.365000
137.860001	214.964005	1094.279053	13.575625	6.553750	-5.858125
121.756004	176.595001	1068.781006	8.176875	0.056875	-1.863750
126.575005	186.904007	1107.333008	6.680625	-7.043750	0.616875
114.252998	170.678009	1130.756958	1.960000	-9.401875	4.698750
123.280998	210.389008	1170.651001	0.608125	-6.076875	5.635000
87.840004	288.652008	1277.339966	0.476875	-6.479375	8.386875
15.189000	390.705017	1411.723022	-3.110625	-2.331875	15.058750
21.410999	583.587036	1598.078003	-11.418750	3.513125	24.613750
71.553001	446.703003	1561.416992	-29.115625	-1.522500	24.338125
128.832001	428.464020	1518.107056	-35.398125	9.668750	17.237499
161.893997	208.498001	1332.362061	-39.781876	17.088751	-4.646250
136.091003	130.906006	1209.508057	-25.331249	37.480625	-23.038750
181.169998	48.556000	1081.530029	-10.075625	56.835625	-38.508751
112.301003	63.440002	1107.394043	-0.713125	70.271248	-45.679375
69.357002	177.205002	1150.947998	-7.980000	46.418751	-52.727501
279.441010	78.385002	1237.629028	-25.283125	11.838750	-32.873749
137.371994	104.309998	1275.448975	-20.580000	28.559999	-28.275625
119.681999	-5.368000	1121.302002	-18.501875	20.724375	-16.073750
57.462002	27.694000	1179.374023	-1.973125	2.060625	-14.056875
151.889999	-91.927002	1076.223022	1.820000	15.680000	-24.841249
-62.159000	4.453000	1047.919067	13.930000	52.110626	-24.272499
12.078000	-99.247002	1000.765991	30.030001	58.021252	-31.001249
-161.772003	20.862000	1057.435059	23.546249	38.311874	-35.853127
-118.706001	-44.042000	960.872009	18.042500	40.805626	-36.583752
-101.992004	-71.065002	982.405029	15.115625	44.655624	-41.829376
-179.339996	-93.147003	946.963989	1.268750	23.030001	-19.193125
-240.949997	-164.151001	828.440979	4.313750	21.901251	-25.584999
-190.380997	-184.585999	831.491028	11.361875	29.754375	-40.131874
-310.184998	-71.918999	903.471008	5.709375	13.291250	-29.343124
-235.704010	-167.018005	870.835999	-5.096875	12.578125	-28.875000
-217.953003	-142.800995	922.991028	-14.179375	0.052500	-7.188125
-285.053009	-225.699997	882.731018	-10.202500	6.575625	2.397500
-250.770996	-162.992004	895.601990	-8.828750	25.488750	12.018125
-354.105011	-130.173996	905.484009	-12.372500	28.021875	32.865002
-441.213013	-47.153000	894.320984	1.417500	35.336876	17.408125
-528.931030	-51.118000	923.296021	-0.013125	11.869375	5.276250
-460.733002	-49.897999	976.061035	-7.196875	-13.991250	-16.603125
-39.223000	84.790001	1182.911987	-1.938125	-44.594376	-0.669375
17.934000	131.149994	1335.046021	-1.798125	-44.891876	-7.529375
78.690002	88.389000	1270.264038	-3.360000	-37.099998	-1.360625
30.988001	16.896999	1222.806030	7.293125	-10.823750	6.361250
48.068001	45.262001	1190.842041	9.559375	-0.883750	1.251250
-1.952000	54.229000	1173.884033	10.578750	-3.241875	1.863750
66.429001	90.462997	1182.851074	13.238750	-7.621250	1.579375
49.166000	141.459000	1144.786987	10.981250	-9.196250	-2.003750
31.720001	173.362000	1187.060059	5.945625	-5.136250	-5.700625
8.845000	212.829010	1211.886963	5.053125	-2.301250	-3.994375
-71.370003	344.833008	1366.644043	-5.079375	0.686875	-4.838750
-53.131001	467.748016	1569.895996	-15.220625	7.105000	-1.351875
-75.822998	625.677002	1740.940063	-36.058750	4.060000	8.732500
49.653999	420.412018	1760.643066	-38.709999	9.301250	17.154375
-45.262001	333.731018	1671.948975	-21.791876	13.676250	12.547500
51.179001	202.947006	1538.114990	-12.551875	11.515000	9.108750
157.746002	53.131001	1327.421021	0.315000	36.929375	-4.598125
204.106003	175.923996	1440.270996	4.921875	56.070000	-17.740625
190.747009	27.511000	1147.776001	-3.346875	75.040001	-20.208124
121.084999	-93.757004	995.825012	2.843750	70.660622	-36.045624
53.862999	-65.758003	893.466980	31.097500	66.272499	-57.290627
-135.419998	117.363998	980.575012	30.397499	65.852501	-69.912498
-49.348999	-22.691999	939.827026	10.574375	38.539375	-65.419373
-0.244000	-108.030998	885.903015	7.826875	27.956249	-51.764999
-44.591000	-293.287994	889.319031	5.206250	38.701248	-49.476875
-32.574001	-317.261017	751.398010	-3.329375	36.093750	-44.830624
-168.421005	-291.092010	728.523010	10.132500	10.946250	-36.942501
-177.815002	-194.529007	614.330994	12.289375	22.771875	-40.499374
-235.520996	-201.483002	725.289978	0.599375	14.936250	-25.042500
-276.878998	-154.208008	749.629028	9.231250	-4.011875	-12.565000
-283.833008	-210.266998	808.494019	11.751250	-7.774375	-2.738750
-385.703003	-101.992004	846.741028	6.343750	-1.400000	1.299375
-278.037994	-211.792007	889.867981	1.684375	-7.765625	-0.761250
-414.373016	-94.367004	941.169006	-2.808750	1.373750	1.111250
-340.136017	-134.749008	930.677002	-4.913125	5.184375	-7.000000
-399.976990	-18.483000	991.005981	-1.124375	-2.152500	-7.319375
-361.181000	-25.193001	1022.726013	4.628750	-7.131250	-8.268750
-363.804016	1.464000	1083.969971	-3.036250	-10.163125	0.236250
63.318001	-20.252001	1155.950073	17.303125	-9.948750	-3.491250
54.229000	1.647000	1131.733032	12.783750	-6.593125	-4.042500
48.739002	-22.631001	1128.378052	2.703750	-3.434375	-3.819375
62.952000	-5.002000	1151.984985	-0.315000	-2.436875	-5.394375
59.048000	-20.496000	1115.019043	2.550625	-0.783125	-5.788125
68.137001	-43.005001	1186.266968	12.626250	-1.465625	-6.829375
59.963001	93.452003	1345.354980	20.912500	-6.352500	-9.795625
81.923004	169.335999	1443.808960	24.990000	-9.891875	-4.983125
143.106003	274.134003	1459.485962	7.730625	-4.038125	-9.410625
50.751999	430.660004	1559.708984	-14.131250	7.468125	-16.804375
50.996002	362.157013	1588.317993	-52.613750	-31.858749	-18.900000
79.910004	134.626999	1518.961060	-66.023125	-57.575001	-20.750626
221.552002	-10.675000	1476.139038	-46.939377	-21.647499	-19.320000
230.031006	-2.623000	1399.706055	-30.235624	42.297501	-11.725000
116.753998	-32.452000	1205.665039	-17.626875	63.056873	-8.395625
113.704002	34.098999	1121.119019	-17.180626	74.724998	-9.222500
73.993004	32.939999	1107.821045	-27.698126	62.190624	-10.145625
181.902008	-120.779999	967.216003	-29.583750	24.990000	-14.818125
79.117004	-60.268002	996.252014	-13.125000	-5.604375	-6.982500
102.053001	-83.509003	955.565002	-0.971250	-32.401249	-1.229375
91.439003	-52.948002	971.242004	11.427500	-9.454375	-13.098750
239.181000	-253.516006	936.960022	7.525000	16.931250	-16.926874
179.949997	-87.108002	1024.921997	7.525000	9.721250	-21.223125
21.106001	-308.660004	880.046997	35.866249	9.721250	-21.223125
21.106001	-308.660004	880.046997	44.738750	17.976875	-13.510000
-4.819000	-66.673004	1008.635010	24.762501	5.341875	-30.379999
64.355003	-312.808014	840.458008	16.113125	-0.691250	-28.192499
-11.468000	-361.851990	877.973022	-1.141875	23.030001	-29.343124
167.078995	-319.884003	830.820007	5.250000	42.673752	-26.565001
-234.240005	-204.410995	741.210999	2.957500	53.173752	-32.834373
-61.854000	-250.466003	981.307007	-10.250625	39.965626	-34.238750
-188.977997	-216.488998	863.088989	-0.813750	12.683125	-11.996250
-167.811005	-234.362000	982.466003	8.780625	-0.196875	-16.231251
-96.075005	-220.210007	943.364990	13.308750	-3.565625	-27.667500
-199.042999	-161.162003	996.434998	9.528750	7.056875	-8.426250
-101.443001	-129.563995	1063.901001	8.067500	10.972500	-2.668750
-229.115997	-146.400009	1057.191040	7.949375	5.166875	-12.989375
-149.815994	-145.057999	1090.863037	2.244375	-7.275625	-18.646250
315.003998	85.522003	1213.411987	13.768125	-25.698750	-14.958125
235.582001	99.674004	1238.483032	12.394375	-18.921875	-9.191875
333.731018	61.183002	1174.250000	7.358750	-10.815000	-0.525000
203.557007	59.779999	1182.240967	6.798750	-5.363750	2.948750
259.311005	-0.122000	1148.508057	5.630625	-4.165000	6.654375
388.875000	71.308998	1131.427979	6.195000	-6.453125	-3.364375
245.341995	113.459999	1104.039062	3.871875	-3.508750	-5.363750
317.505005	139.568008	1175.652954	-1.890000	-0.888125	-8.579375
293.105011	241.376999	1293.016968	-3.438750	-8.036875	-13.120625
225.944000	387.411011	1472.234985	-2.003750	1.925000	-3.710000
228.811005	444.385010	1562.820068	-5.573750	19.967501	6.173125
203.191010	442.372009	1611.010010	-7.205625	22.448126	2.117500
262.666016	452.253998	1522.864990	-2.533125	41.715626	-0.153125
168.238007	336.292999	1545.679077	-2.782500	39.821251	-5.735625
270.778992	314.821014	1415.749023	2.493750	49.739376	-16.336250
253.028000	219.477997	1321.504028	13.203750	62.295624	-29.938126
205.692001	220.576004	1243.546021	6.641250	50.837502	-49.240623
252.540009	151.707001	1061.217041	-11.458125	45.001251	-42.279999
184.403000	-26.169001	952.210022	-21.350000	29.216249	-45.307499
159.270996	-31.537001	996.252014	-33.753124	1.684375	-64.566254
252.783997	-39.345001	910.059021	-24.403749	10.626875	-56.726250
195.749008	-141.214996	963.983032	-3.845625	47.656876	-63.332500
149.328003	-110.288002	909.692993	-16.034374	47.573750	-63.586250
22.204000	-119.621002	956.479980	-14.630000	32.235001	-49.323750
216.977005	-223.199005	923.296021	-1.478750	26.088125	-47.468750
16.226000	-149.449997	870.043030	19.674376	38.906876	-34.571251
36.050999	-233.203003	913.658020	33.009377	42.993126	-37.799999
-88.694000	-48.799999	947.635010	35.258125	30.966249	-32.090626
-124.988998	-110.288002	890.905029	36.763126	33.131874	-29.168125
-97.234001	-35.014000	928.725037	34.851250	24.202499	-11.930625
-165.005005	-37.698002	869.799011	30.786875	21.350000	-2.948750
-194.589996	-62.037003	868.518005	20.011250	19.359375	-8.798125
-159.637009	-1.098000	911.218018	12.985000	5.376875	-9.336250
-216.244995	-53.375000	952.697998	0.853125	1.303750	-5.810000
-232.897995	-9.028000	1021.079041	-10.775625	-2.769375	-1.855000
-262.666016	-21.899000	1049.443970	-9.603125	1.605625	1.828750
-327.082001	-23.058001	1067.805054	-10.679375	12.473125	-3.666250
-268.278015	3.782000	1087.447021	-9.257500	4.007500	-0.993125
-74.176003	216.550003	1198.467041	3.281250	8.181250	4.252500
-75.029999	212.158005	1111.724976	3.959375	-2.493750	-2.065000
-86.803001	209.596008	1086.471069	0.883750	-4.803750	-1.780625
-35.806999	206.057999	1124.535034	5.328750	-9.861250	0.183750
-9.516000	229.055008	1134.966064	4.488750	-14.328125	-3.110625
24.461000	234.057007	1128.561035	2.896250	-5.630625	-0.809375
24.888000	255.895004	1169.796997	0.266875	4.239375	1.001875
32.269001	278.587006	1202.187988	-0.980000	7.870625	-0.997500
-9.455000	337.574005	1201.333984	-0.770000	17.276875	-1.465625
