A_X[mg]	A_Y[mg]	A_Z[mg]	G_X[dps]	G_Y[dps]	G_Z[dps]	
179.706009	123.464005	1103.612061	0.612500	-0.630000	-1.500625
179.828003	130.479004	1104.588013	0.608125	-0.577500	-1.491875
182.207001	128.466003	1105.930054	0.560000	-0.511875	-1.487500
181.779999	128.466003	1104.099976	0.595000	-0.630000	-1.526875
182.145996	130.417999	1107.821045	0.590625	-0.608125	-1.487500
178.973999	129.686005	1103.489990	0.581875	-0.533750	-1.461250
180.804001	128.466003	1103.978027	0.704375	-0.590625	-1.531250
179.096008	129.563995	1104.588013	0.621250	-0.643125	-1.505000
181.352997	121.451004	1104.099976	0.608125	-0.538125	-1.421875
181.902008	124.867004	1103.001953	0.577500	-0.586250	-1.360625
180.194000	127.794998	1105.563965	0.564375	-0.616875	-1.404375
180.804001	125.050003	1110.870972	0.581875	-0.555625	-1.509375
179.828003	128.893005	1104.770996	0.437500	-0.612500	-1.509375
178.852005	125.538002	1101.537964	0.560000	-0.581875	-1.518125
181.475006	124.318001	1103.612061	0.520625	-0.643125	-1.456875
177.876007	129.137009	1098.732056	0.490000	-0.581875	-1.465625
182.695007	125.293999	1103.185059	0.481250	-0.704375	-1.452500
178.608002	125.293999	1100.440063	0.599375	-0.651875	-1.500625
179.949997	126.514000	1106.723022	0.616875	-0.673750	-1.386875
182.024002	128.770996	1104.832031	0.590625	-0.691250	-1.347500
185.378998	124.318001	1101.050049	0.616875	-0.590625	-1.509375
178.912994	127.551003	1105.259033	0.599375	-0.564375	-1.518125
177.632004	130.845001	1105.563965	0.603750	-0.616875	-1.522500
172.874008	125.477005	1105.076050	0.573125	-0.529375	-1.610000
181.109009	130.356995	1104.953979	0.586250	-0.507500	-1.421875
178.973999	130.540009	1099.159058	0.638750	-0.616875	-1.561875
182.938995	128.587997	1101.904053	0.656250	-0.603750	-1.491875
179.706009	128.222000	1105.990967	0.647500	-0.595000	-1.583750
177.388000	123.098000	1104.343994	0.673750	-0.651875	-1.557500
181.475006	126.209000	1100.562012	0.700000	-0.603750	-1.413125
179.218002	125.293999	1103.916992	0.616875	-0.481250	-1.465625
182.328995	129.746994	1103.001953	0.673750	-0.599375	-1.382500
184.585999	127.612000	1102.391968	0.669375	-0.595000	-1.535625
184.830002	128.100006	1108.552979	0.621250	-0.595000	-1.649375
181.779999	126.391998	1103.855957	0.643125	-0.621250	-1.513750
184.647003	132.065002	1104.466064	0.643125	-0.673750	-1.439375
180.682007	130.662003	1104.099976	0.542500	-0.525000	-1.439375
181.169998	126.880005	1103.489990	0.621250	-0.647500	-1.518125
178.486008	131.455002	1102.514038	0.660625	-0.612500	-1.566250
177.143997	127.489998	1102.270020	0.608125	-0.608125	-1.470000
177.998001	129.686005	1100.562012	0.603750	-0.634375	-1.386875
181.109009	127.978004	1104.282959	0.586250	-0.673750	-1.373750
180.316010	126.391998	1103.245972	0.511875	-0.608125	-1.461250
178.242004	126.758003	1100.196045	0.586250	-0.630000	-1.417500
181.597000	132.065002	1102.026001	0.673750	-0.586250	-1.365000
179.218002	130.052002	1106.479004	0.551250	-0.603750	-1.413125
179.218002	131.638000	1108.125977	0.612500	-0.603750	-1.386875
181.048004	127.246002	1101.598999	0.595000	-0.695625	-1.544375
178.973999	130.479004	1105.136963	0.665000	-0.590625	-1.487500
182.817001	127.368004	1102.758057	0.665000	-0.542500	-1.601250
179.828003	128.587997	1101.416016	0.660625	-0.555625	-1.465625
178.852005	125.538002	1107.698975	0.564375	-0.573125	-1.548750
179.584000	127.917000	1107.027954	0.485625	-0.485625	-1.487500
177.753998	126.880005	1102.270020	0.533750	-0.568750	-1.417500
182.451004	128.953995	1099.342041	0.468125	-0.555625	-1.452500
180.682007	129.686005	1102.575073	0.546875	-0.603750	-1.522500
179.096008	128.710007	1104.222046	0.634375	-0.669375	-1.421875
177.509995	130.540009	1100.806030	0.568750	-0.647500	-1.360625
178.852005	125.293999	1104.770996	0.533750	-0.516250	-1.478750
181.841003	125.781998	1100.806030	0.490000	-0.590625	-1.360625
174.764999	124.562004	1103.672974	0.581875	-0.691250	-1.395625
183.061005	129.503006	1101.904053	0.551250	-0.621250	-1.443750
180.316010	127.856003	1104.161011	0.634375	-0.634375	-1.610000
175.253006	124.318001	1105.686035	0.564375	-0.529375	-1.544375
177.815002	129.014999	1106.052002	0.564375	-0.520625	-1.430625
176.900009	132.675003	1101.660034	0.638750	-0.665000	-1.448125
180.987000	127.551003	1102.148071	0.651875	-0.665000	-1.448125
177.998001	125.903999	1103.368042	0.708750	-0.586250	-1.430625
181.841003	120.353004	1103.855957	0.621250	-0.586250	-1.513750
189.893005	131.516006	1100.440063	0.621250	-0.586250	-1.557500
172.996002	126.636002	1106.967041	0.651875	-0.621250	-1.557500
172.996002	126.636002	1100.379028	0.297500	-0.577500	-1.365000
180.132996	125.293999	1100.379028	0.599375	-0.590625	-1.452500
185.988998	126.758003	1105.136963	0.686875	-0.643125	-1.421875
174.399002	125.293999	1105.442017	0.306250	-0.262500	-1.382500
179.645004	134.626999	1106.540039	0.472500	-0.511875	-1.426250
170.738998	129.014999	1099.769043	0.533750	-0.630000	-1.408750
186.904007	125.416000	1105.869019	0.875000	-0.809375	-1.496250
179.156998	129.380997	1100.196045	0.826875	-0.735000	-1.448125
178.608002	127.734001	1108.552979	0.647500	-0.616875	-1.435000
177.509995	127.246002	1108.125977	0.468125	-0.494375	-1.308125
179.706009	117.668999	1108.735962	0.586250	-0.568750	-1.382500
182.024002	132.979996	1101.233032	0.673750	-0.665000	-1.535625
181.779999	122.182999	1105.015015	0.118125	-0.713125	-1.461250
183.000000	122.732002	1103.489990	0.787500	-0.682500	-1.526875
176.839005	123.342003	1100.073975	1.028125	-0.844375	-1.435000
175.923996	130.479004	1103.185059	0.800625	-0.555625	-1.443750
184.037003	134.505005	1103.978027	0.218750	-0.131250	-1.343125
176.106995	127.794998	1103.612061	0.271250	-0.511875	-1.413125
182.085007	118.035004	1099.708008	0.188125	-0.428750	-1.246875
184.830002	124.013000	1101.171997	0.538125	-0.306250	-1.343125
185.928009	127.429001	1100.196045	0.328125	-0.564375	-1.452500
175.497009	127.489998	1100.927979	-0.135625	-0.455000	-1.299375
182.695007	123.464005	1106.113037	-0.100625	-0.354375	-1.382500
177.753998	120.536003	1103.734009	0.476875	-0.468125	-1.579375
178.973999	118.828003	1102.880005	0.901250	-0.573125	-1.623125
181.352997	123.280998	1104.588013	1.085000	-0.398125	-1.618750
180.559998	134.932007	1098.305054	0.608125	-0.446250	-1.483125
180.194000	126.819000	1104.161011	0.170625	-0.529375	-1.509375
176.290009	119.376999	1103.124023	-0.087500	-0.323750	-1.378125
182.938995	121.389999	1108.552979	0.472500	-0.214375	-1.478750
176.716995	127.063004	1101.233032	0.660625	-0.446250	-1.395625
178.852005	124.928001	1101.660034	0.341250	-0.371875	-1.417500
178.363998	123.952003	1104.161011	0.039375	-0.389375	-1.378125
171.471008	122.000000	1107.211060	-0.485625	-0.109375	-1.321250
192.089005	146.216995	1107.515991	-3.959375	3.185000	-1.159375
161.406006	106.322998	1108.125977	-5.796875	4.637500	-0.914375
168.177002	107.970001	1111.237061	-5.880000	4.729375	-1.045625
167.994003	107.848000	1110.322021	-5.403125	4.742500	-0.892500
158.173004	105.529999	1108.125977	-5.775000	5.455625	-0.739375
152.988007	96.075005	1109.589966	-6.160000	6.033125	-0.560000
152.622009	89.609001	1111.420044	-6.510000	6.488125	-0.183750
143.899002	77.287003	1112.884033	-7.144375	7.078750	0.323750
136.701004	87.718002	1115.079956	-6.269375	6.571250	0.748125
133.956009	78.995003	1117.154053	-6.820625	7.350000	1.356250
127.551003	72.163002	1115.079956	-7.000000	7.651875	1.710625
113.582001	64.476997	1116.300049	-7.297500	8.023750	1.911875
120.597000	64.050003	1114.592041	-9.664375	10.355625	3.180625
107.909004	46.726002	1125.328003	-11.860625	12.236875	5.066250
98.027000	41.174999	1117.581055	-12.556250	12.551875	6.864375
89.853004	32.025002	1121.484985	-10.972500	11.720625	6.925625
76.677002	25.071001	1117.764038	-7.192500	7.940625	5.385625
76.494003	26.230000	1118.739990	-5.543125	5.853750	4.668125
80.459000	20.313000	1121.424072	-3.346875	3.766875	2.476250
71.431000	16.836000	1124.535034	-1.163750	1.754375	0.533750
72.468002	15.616000	1119.838013	-0.406875	0.678125	-0.083125
62.890999	13.786000	1115.690063	-1.159375	0.595000	0.686875
63.806000	8.357000	1115.446045	-0.078750	-1.509375	-1.194375
73.566002	12.749001	1123.681030	1.483125	-1.496250	-1.868125
64.476997	27.328001	1117.458984	1.723750	-0.481250	-1.680000
75.029999	10.126000	1118.495972	0.599375	-1.316875	-1.894375
67.161003	17.507000	1110.626953	0.511875	-0.656250	-1.627500
69.845001	10.675000	1116.360962	0.857500	-0.735000	-1.487500
69.540001	17.385000	1119.166992	0.896875	-0.564375	-1.553125
71.248001	9.821000	1120.447998	0.682500	-0.682500	-1.448125
67.709999	15.189000	1120.326050	0.555625	-0.708750	-1.400000
68.320000	17.995001	1117.398071	0.533750	-0.581875	-1.400000
70.272003	22.387001	1117.764038	0.721875	-0.647500	-1.478750
70.515999	14.823000	1119.716064	0.586250	-0.577500	-1.395625
70.515999	14.030000	1120.692017	0.669375	-0.533750	-1.491875
67.344002	11.956000	1123.315063	0.726250	-0.634375	-1.553125
78.812004	16.775000	1124.718018	0.358750	-0.616875	-1.400000
72.041000	18.177999	1119.959961	0.503125	-0.905625	-1.443750
69.662003	18.300001	1120.813965	0.669375	-0.192500	-1.500625
77.775002	15.250000	1114.896973	0.656250	-0.861875	-1.417500
67.892998	17.080000	1116.544067	0.516250	-0.678125	-1.421875
71.308998	29.768000	1112.274048	0.402500	-0.651875	-1.557500
61.427002	50.081001	1126.060059	0.971250	0.017500	-1.391250
83.142998	9.089000	1111.907959	1.369375	-1.697500	-1.649375
67.344002	17.263000	1120.265015	1.168125	0.621250	-1.890000
59.963001	15.006001	1120.447998	0.966875	0.043750	-1.666875
81.556999	23.363001	1120.082031	0.735000	-0.529375	-1.592500
48.799999	20.618000	1133.135986	0.214375	0.354375	-1.159375
72.285004	14.335000	1115.079956	0.087500	-1.268750	-1.518125
77.287003	13.542000	1113.372070	0.210000	-1.365000	-1.601250
69.479004	17.873001	1119.655029	0.673750	-0.643125	-1.478750
78.507004	21.777000	1121.667969	0.931875	-0.468125	-1.570625
65.391998	9.333000	1118.008057	0.813750	0.048125	-1.627500
75.884003	19.398001	1121.484985	0.542500	-0.879375	-1.509375
71.492004	15.372000	1121.302002	0.126875	-0.008750	-1.343125
62.525002	17.629000	1119.105957	0.332500	-0.135625	-1.268750
72.834000	18.422001	1116.300049	0.301875	-0.148750	-1.290625
65.453003	21.533001	1115.323975	0.148750	0.170625	-1.400000
71.187004	9.821000	1115.690063	0.481250	0.140000	-1.443750
64.598999	12.322001	1125.389038	0.398125	0.118125	-1.553125
60.756001	20.434999	1120.570068	0.669375	0.201250	-1.417500
62.098000	21.716000	1122.521973	0.415625	4.121250	-0.901250
62.341999	11.895000	1119.472046	-0.105000	4.611250	-0.630000
50.569000	14.823000	1120.082031	0.463750	2.795625	-0.949375
61.487999	19.703001	1121.667969	0.743750	3.443125	-0.962500
51.056999	14.518001	1123.742065	0.962500	5.328750	-0.704375
50.507999	14.518001	1124.229980	0.975625	7.231875	-0.485625
37.332001	15.250000	1121.424072	1.736875	10.386250	-0.555625
30.927000	20.801001	1123.864014	2.016875	11.611250	0.017500
22.264999	18.422001	1124.596069	1.588125	12.018125	0.468125
16.165001	21.899000	1117.581055	1.106875	9.983750	0.966875
7.137000	18.544001	1119.716064	0.713125	8.456875	1.448125
10.919000	23.363001	1118.739990	0.179375	8.028125	1.505000
-1.281000	21.350000	1123.802979	-0.135625	6.768125	1.181250
-4.758000	20.374001	1118.068970	-1.001875	8.295000	2.051875
-18.056000	12.993000	1123.437012	-2.275000	11.484375	3.775625
-22.326000	17.141001	1117.337036	-2.931250	12.521250	5.630625
-27.084000	11.285000	1121.484985	-4.291875	12.363750	7.113750
-44.652000	11.712000	1123.010010	-5.254375	10.998750	8.159375
-47.702000	5.185000	1122.400024	-5.827500	7.686875	8.688750
-58.499001	-2.501000	1121.057983	-6.680625	5.565000	10.053750
-55.815002	-4.636000	1119.716064	-6.680625	2.616250	8.102500
-53.802002	-6.466000	1119.716064	-5.560625	2.616250	8.102500
-53.802002	-6.466000	1117.764038	-2.410625	-0.288750	3.150000
-57.950001	-0.427000	1117.764038	-0.468125	-0.883750	-0.210000
-63.623001	-13.237000	1113.982056	0.275625	-0.966875	-1.334375
-54.961002	-4.453000	1119.411011	1.045625	-0.791875	-1.312500
-58.194000	-4.270000	1116.666016	0.861875	-0.546875	-1.386875
-59.902000	-5.734000	1120.509033	1.010625	-0.691250	-1.330000
-56.547001	-5.124000	1120.570068	1.120000	-0.520625	-1.382500
-53.862999	-10.797000	1116.056030	1.006250	-0.135625	-1.513750
-53.802002	-7.991000	1121.363037	1.351875	-0.210000	-1.575000
-56.608002	-6.100000	1116.666016	1.531250	0.083125	-1.688750
-56.608002	-7.564000	1109.406982	2.314375	1.076250	-3.342500
-67.771004	3.172000	1113.067017	2.218125	2.043125	-1.338750
-61.427002	-3.965000	1118.801025	1.925000	2.734375	1.666875
-65.879997	13.725000	1118.739990	3.430000	6.002500	3.714375
-73.139000	-5.124000	1116.177979	4.515000	11.230625	6.291250
-86.620003	3.843000	1111.786011	5.604375	9.213750	3.766875
-81.313004	14.030000	1117.825073	5.748750	7.179375	2.436875
-99.795998	15.616000	1114.225952	4.895625	6.873125	2.699375
-97.844002	14.152000	1111.176025	5.140625	5.757500	1.876875
-97.966003	19.825001	1112.761963	6.050625	7.450625	4.361875
-114.192001	28.731001	1113.372070	6.418125	7.393750	6.580000
-115.534004	31.171000	1120.265015	6.396250	3.220000	8.172500
-94.855003	45.750000	1110.016968	6.409375	1.767500	7.345625
-123.464005	27.938000	1115.994995	3.753750	3.495625	4.296250
-123.464005	45.932999	1113.250000	4.151875	2.388750	3.683750
-116.205002	45.018002	1109.833984	4.987500	2.445625	5.035625
-126.696999	43.188000	1115.506958	4.598125	3.640000	7.109375
-125.903999	46.542999	1106.967041	3.718750	2.756250	8.478750
-119.743004	49.715000	1115.385010	3.250625	3.097500	8.855000
-137.005997	54.716999	1111.297974	3.924375	5.600000	10.456250
-127.063004	66.001999	1109.468018	5.971875	7.245000	15.111250
-143.350006	66.734001	1114.165039	9.113125	8.229375	19.140625
-143.472000	80.520004	1109.712036	13.374375	9.515625	22.185625
-159.576004	92.842003	1098.427002	16.428125	10.075625	24.591875
-156.098999	104.554001	1103.916992	18.926250	11.519375	28.507500
-160.307999	129.869003	1098.061035	16.283751	10.364375	20.181875
-181.962997	143.960007	1089.155029	12.775000	6.995625	9.288125
-171.287994	142.374008	1094.156982	7.665000	4.169375	3.976875
-189.587997	152.438995	1087.935059	3.071250	-1.776250	-3.045000
-171.348999	141.703003	1102.880005	-0.350000	-2.397500	-2.113125
-171.531998	141.520004	1098.975952	-1.001875	-1.404375	-1.382500
-170.434006	142.862000	1091.717041	-0.638750	-1.225000	-1.666875
-175.497009	148.291000	1087.874023	0.074375	-0.953750	-1.408750
-187.574997	138.653000	1093.425049	0.078750	-0.494375	-1.386875
-146.460999	125.965004	1094.339966	1.435000	-1.076250	-1.500625
-166.652008	126.026001	1101.477051	1.255625	1.802500	-1.828750
-151.035995	108.580002	1117.276001	-0.345625	-3.766875	-0.980000
-181.779999	163.906998	1086.166016	0.161875	-0.551250	-1.780625
-160.125000	137.311005	1095.620972	0.791875	-0.437500	-1.553125
-177.998001	140.483002	1094.583984	0.638750	-0.595000	-1.491875
-167.139999	143.289001	1093.973999	0.643125	-0.459375	-1.378125
-170.068008	140.421997	1092.754028	0.717500	-0.665000	-1.522500
-170.921997	141.641998	1099.036987	0.621250	-0.691250	-1.483125
-176.290009	141.031998	1093.973999	0.621250	-0.669375	-1.465625
-172.934998	139.568008	1096.841064	0.542500	-0.656250	-1.522500
-165.615005	138.714005	1093.852051	0.564375	-0.691250	-1.518125
-170.983002	143.044998	1096.841064	0.621250	-0.752500	-1.535625
-173.850006	143.837997	1089.643066	0.555625	-0.498750	-1.505000
-173.850006	145.302002	1094.156982	0.546875	-0.420000	-1.548750
-167.322998	139.873001	1095.803955	0.511875	-0.538125	-1.500625
-172.691010	144.020996	1094.583984	0.581875	-0.708750	-1.435000
-170.678009	145.180008	1094.950073	0.608125	-0.616875	-1.518125
-173.606003	141.031998	1098.427002	0.673750	-0.551250	-1.461250
-170.494995	141.764008	1098.244019	0.590625	-0.625625	-1.465625
-180.255005	144.996994	1100.683960	0.529375	-0.599375	-1.505000
-168.481995	141.886002	1094.035034	0.529375	-0.595000	-1.500625
-172.874008	141.154007	1094.583984	0.608125	-0.595000	-1.566250
-172.264008	140.300003	1097.938965	0.616875	-0.590625	-1.474375
-171.531998	144.753006	1097.755981	0.564375	-0.603750	-1.443750
-170.678009	140.787994	1092.510010	0.463750	-0.643125	-1.426250
-172.141998	142.984009	1092.388062	0.616875	-0.621250	-1.343125
-171.897995	138.104004	1098.305054	0.656250	-0.577500	-1.452500
-170.678009	141.214996	1094.462036	0.713125	-0.577500	-1.491875
-169.458008	144.630997	1095.803955	0.608125	-0.695625	-1.557500
-172.996002	140.787994	1096.780029	0.595000	-0.577500	-1.500625
-168.055008	141.641998	1098.000000	0.577500	-0.603750	-1.470000
-170.190002	137.615997	1097.024048	0.555625	-0.625625	-1.391250
-170.434006	141.581009	1096.170044	0.621250	-0.568750	-1.435000
-172.751999	141.520004	1095.560059	0.665000	-0.581875	-1.369375
-171.166000	145.485001	1096.901978	0.546875	-0.533750	-1.435000
-178.059006	141.154007	1093.729980	0.555625	-0.581875	-1.478750
-173.667007	141.031998	1096.047974	0.616875	-0.625625	-1.540000
-169.641006	140.910004	1094.828003	0.625625	-0.603750	-1.500625
-173.484009	136.762009	1095.682007	0.608125	-0.586250	-1.382500
-170.128998	141.703003	1096.901978	0.551250	-0.573125	-1.400000
-178.059006	140.910004	1092.631958	0.599375	-0.630000	-1.645000
-168.421005	142.374008	1096.474976	0.603750	-0.590625	-1.439375
-166.164001	141.641998	1096.414062	0.603750	-0.577500	-1.522500
-168.238007	145.606995	1096.047974	0.538125	-0.542500	-1.553125
-172.020004	143.593994	1095.560059	0.608125	-0.616875	-1.456875
-170.800003	141.397995	1095.803955	0.577500	-0.590625	-1.369375
-183.061005	143.227997	1081.407959	0.621250	-0.739375	-1.491875
-161.833008	146.216995	1102.697021	0.704375	-0.546875	-1.439375
-158.173004	112.606003	1063.169067	0.389375	-0.708750	-1.369375
-155.367004	174.582001	1086.958984	0.227500	-1.382500	-1.360625
-180.865005	131.210999	1107.211060	0.546875	-0.249375	-1.487500
-168.725998	138.408997	1103.855957	0.131250	0.844375	-1.846250
-172.630005	129.990997	1096.718994	0.678125	1.579375	-2.183125
-174.947998	143.593994	1104.526978	2.616250	2.038750	-2.305625
-181.231003	166.347000	1092.083008	7.756875	2.065000	-8.925000
-182.268005	158.539001	1077.381958	12.079375	1.229375	-19.149376
-183.975998	145.485001	1092.265991	13.195000	1.036875	-20.269375
-178.059006	167.322998	1090.436035	10.644375	1.141875	-14.945000
-176.533997	168.604004	1089.703979	5.805625	1.163750	-8.785000
-189.832001	168.238007	1093.425049	7.249375	2.555000	-8.365000
-200.141006	166.042007	1078.723999	7.822500	4.668125	-7.109375
-196.481003	171.959000	1077.625977	6.680625	4.029375	-4.917500
-194.834000	182.024002	1080.980957	6.680625	4.029375	-4.681250
-210.206009	186.964996	1083.115967	7.791875	6.418125	-4.681250
-210.206009	186.964996	1083.115967	8.868125	9.130625	-5.626250
-210.816010	191.356995	1077.992065	11.576250	8.916250	-9.546250
-215.085999	203.984009	1082.201050	10.058125	8.058750	-9.559375
-228.201004	199.348007	1082.505981	8.710625	8.238125	-7.818125
-238.570999	203.434998	1070.367065	9.843750	9.375625	-7.787500
-246.867004	210.389008	1069.573975	10.661875	10.325000	-7.700000
-253.455002	227.529999	1054.933960	10.806250	9.581250	-7.866250
-253.150009	223.138000	1052.005981	8.120000	6.798750	-7.678125
-253.393997	224.479996	1066.157959	6.195000	3.535000	-8.303750
-270.230011	229.298996	1060.363037	5.232500	2.362500	-9.314375
-265.899017	228.628006	1053.775024	2.296875	0.188125	-5.092500
-261.873016	224.358002	1062.192993	0.424375	-1.141875	-2.533125
-279.257996	225.089996	1054.873047	0.560000	-1.973125	-1.920625
-258.822998	233.569000	1059.020996	-0.157500	-3.119375	-1.662500
-261.812012	221.857010	1062.315063	-0.433125	-2.883125	-1.596875
-261.080017	221.796005	1063.108032	-0.214375	-2.318750	-1.225000
-269.437012	223.382004	1061.034058	0.157500	-2.065000	-0.914375
-251.930008	236.192001	1057.739990	0.945000	-2.900625	-0.581875
-251.320007	242.231003	1063.291016	0.218750	-0.826875	-1.500625
-241.194000	258.640015	1069.390991	-0.538125	-1.067500	-1.675625
-268.705017	231.983002	1059.509033	0.555625	-0.660625	-1.400000
