A_X[mg]	A_Y[mg]	A_Z[mg]	G_X[dps]	G_Y[dps]	G_Z[dps]	
-10.675000	36.660999	1109.712036	3.784375	-1.133125	-2.909375
-17.019001	31.964001	1121.911987	3.736250	-2.730000	-3.386250
18.971001	37.393002	1125.510986	2.384375	-4.200000	-3.412500
8.967000	38.552002	1130.269043	1.308125	0.459375	-2.073750
-15.921000	22.936001	1119.899048	0.997500	1.631875	-2.388750
-11.651000	24.888000	1112.457031	0.118125	0.148750	0.140000
1.098000	27.267000	1123.131958	-0.126875	-0.883750	3.176250
8.357000	21.777000	1111.847046	-0.126875	-2.165625	3.749375
7.930000	53.070000	1113.250000	2.314375	-2.165625	3.749375
7.930000	53.070000	1099.463989	3.049375	-2.896250	7.450625
9.760000	48.799999	1099.463989	2.419375	-0.533750	10.622500
-0.793000	59.292000	1108.308960	1.824375	0.468125	15.627500
-8.357000	55.754002	1113.921021	0.245000	-1.391250	19.906250
0.549000	52.338001	1130.452026	0.879375	-1.505000	19.258751
-5.917000	58.621002	1136.613037	3.185000	-0.389375	19.092501
-10.492001	49.348999	1132.037964	1.229375	-2.178750	17.968124
4.636000	54.351002	1132.037964	-2.673125	-0.774375	13.221250
8.967000	43.493000	1134.295044	-4.383750	-0.179375	7.984375
5.490000	38.430000	1126.243042	-3.613750	1.032500	4.519375
18.544001	39.040001	1125.083984	-0.459375	1.750000	2.095625
1.220000	47.153000	1118.435059	-1.544375	2.778125	3.780000
6.649000	44.774002	1107.942993	-2.126250	0.573125	7.332500
-15.921000	65.209000	1119.593994	0.166250	0.818125	5.263125
-0.854000	38.247002	1107.454956	-0.070000	1.750000	2.183125
-11.895000	17.568001	1109.773071	1.080625	-2.786875	1.605625
-3.111000	24.948999	1112.822998	-1.312500	-5.368125	6.400625
5.795000	28.487000	1118.191040	-3.110625	-6.111875	12.766250
17.690001	19.580999	1119.593994	-1.820000	-6.365625	16.537500
6.893000	25.802999	1102.514038	1.246875	-3.797500	19.079374
17.568001	44.834999	1116.544067	0.678125	-4.585000	26.359375
16.592001	38.735001	1126.303955	1.771875	-1.793750	26.761875
19.032000	15.555000	1123.375977	2.804375	-2.555000	27.636875
27.999001	26.352001	1128.682983	-1.080625	-4.690000	28.297501
22.326000	32.635002	1122.217041	-5.871250	-0.980000	29.290625
17.812000	3.538000	1113.188965	-4.921875	-1.999375	26.573750
21.045000	22.631001	1118.801025	-7.826875	-2.454375	27.221251
16.469999	23.668001	1109.041016	-11.427500	-2.559375	29.093750
21.533001	18.910000	1107.394043	-12.726875	-1.715000	26.993750
43.371002	-23.485001	1125.206055	-7.936250	-2.786875	19.442499
24.156000	-20.191000	1111.420044	-5.009375	-2.240000	16.756250
30.316999	-26.657000	1126.303955	-1.601250	-4.895625	14.931875
41.358002	-19.215000	1124.839966	1.544375	-7.135625	12.783750
51.300999	-19.276001	1131.610962	3.447500	-4.379375	11.318125
20.130001	-11.285000	1123.681030	4.090625	-1.461250	11.646250
41.418999	-19.825001	1124.352051	3.648750	-2.436875	12.289375
26.718000	1.525000	1101.598999	6.116250	0.651875	10.158750
30.805000	2.440000	1122.827026	7.481250	-0.525000	12.420625
39.101002	22.631001	1115.140991	8.614375	0.437500	9.043125
20.007999	10.553000	1132.281982	5.018125	1.421875	9.703750
47.336002	7.198000	1143.140015	1.767500	-3.994375	7.953750
51.545002	-1.647000	1138.260010	-0.896875	-4.077500	-3.377500
70.698997	-31.964001	1141.980957	-1.605625	-0.205625	-12.950000
27.084000	-1.220000	1141.920044	-1.977500	1.238125	-19.923750
48.007000	-15.982000	1125.450073	0.555625	0.490000	-22.106874
43.431999	13.664001	1120.692017	2.200625	6.453125	-23.681875
6.039000	-13.359000	1115.933960	2.887500	8.509375	-24.867500
24.461000	-7.869000	1112.761963	2.183125	2.165625	-26.363750
34.342999	-11.834001	1107.333008	0.109375	4.081875	-28.879375
17.934000	-1.586000	1113.311035	1.785000	5.337500	-31.530624
30.378000	12.932000	1124.718018	0.529375	-0.778750	-34.991249
36.904999	-19.642000	1117.581055	-3.093125	-1.872500	-34.028751
37.576000	11.712000	1101.294067	0.385000	0.831250	-38.674999
-0.183000	-9.089000	1117.764038	0.476875	4.856250	-42.061249
-0.366000	-11.834001	1130.940063	-1.723750	0.800625	-38.679375
13.908000	-8.967000	1112.761963	-1.036875	-2.388750	-41.982498
-5.124000	-20.557001	1154.364014	0.459375	0.787500	-46.340000
14.945000	0.305000	1138.381958	1.509375	6.173125	-49.949375
-7.747000	3.477000	1144.909058	1.671250	7.752500	-48.689377
-3.111000	-15.128000	1152.350952	4.357500	4.353125	-48.142502
-0.915000	14.518001	1134.234009	3.745000	-0.039375	-44.887501
0.732000	-2.806000	1144.725952	4.169375	-4.283125	-47.810001
19.215000	16.165001	1127.280029	4.970000	-6.663125	-48.072498
37.758999	-6.161000	1134.539062	0.144375	-6.689375	-46.571877
40.687000	-32.390999	1113.067017	-0.402500	-3.745000	-50.181252
10.736000	43.431999	1101.721069	-1.080625	3.766875	-58.625000
5.978000	15.921000	1092.815063	2.826250	8.907500	-61.788124
-33.367001	50.447002	1097.328979	6.676250	7.783125	-60.248123
-36.112000	52.338001	1086.227051	6.251875	0.669375	-52.500000
-7.198000	57.401001	1099.098022	7.708750	0.498750	-46.584999
-8.784000	88.571999	1088.545044	6.505625	-3.115000	-39.143124
-1.647000	59.414001	1098.792969	0.008750	-3.062500	-29.596874
9.272000	49.105000	1111.420044	0.761250	-4.593750	-31.123751
21.350000	31.476000	1119.289062	-2.900625	-7.017500	-28.616875
10.797000	36.050999	1134.355957	-1.010625	-4.554375	-29.426250
1.769000	17.690001	1128.195068	1.631875	-5.775000	-26.267500
23.607000	29.646000	1143.505981	0.608125	-7.183750	-26.355000
22.204000	34.952999	1112.151978	-0.455000	-2.235625	-30.725624
18.788000	5.734000	1140.822021	-3.517500	1.400000	-39.340000
16.714001	44.957001	1156.560059	-3.346875	0.227500	-47.031250
28.548000	42.577999	1131.489014	-7.980000	-7.389375	-32.628750
33.611000	20.191000	1133.989990	-7.227500	-7.774375	-20.606251
36.904999	8.845000	1115.446045	-6.641250	0.183750	-19.280624
5.124000	22.326000	1131.183960	-3.723125	3.845625	-17.902500
8.723001	17.690001	1110.505005	0.280000	4.458125	-19.941250
27.632999	4.270000	1115.385010	1.636250	-1.776250	-20.264999
40.504002	-5.063000	1114.225952	5.188750	-2.502500	-20.221251
11.346000	23.912001	1106.479004	7.223125	0.739375	-22.439375
41.846001	45.811001	1123.254028	3.128125	-5.818750	-16.651251
35.441002	42.334000	1117.520020	1.155000	-4.729375	-11.230625
31.110001	45.079002	1133.745972	0.389375	-0.446250	-11.143125
22.631001	34.709000	1128.500000	-4.650625	0.367500	-2.725625
37.698002	-9.882000	1142.286011	-2.257500	-0.288750	-1.041250
27.632999	-11.468000	1122.034058	3.766875	2.887500	-4.095000
20.434999	8.723001	1120.326050	4.003125	1.680000	-3.097500
37.332001	27.755001	1117.764038	4.615625	-0.678125	2.953125
45.811001	31.049000	1103.855957	5.180000	1.579375	7.748125
24.095001	47.702000	1122.338989	3.482500	-0.791875	17.351250
32.146999	39.833000	1105.076050	3.740625	-1.054375	21.665001
42.272999	23.912001	1130.513062	8.067500	2.397500	23.078125
2.379000	54.411999	1129.598022	1.684375	-1.863750	28.678125
26.291000	33.367001	1144.604004	-2.804375	-1.540000	29.723749
10.126000	33.062000	1123.071045	-0.673750	2.835000	25.025000
-0.061000	42.028999	1141.126953	-1.583750	0.721875	26.061874
23.729000	30.805000	1137.527954	0.096250	-0.840000	25.046875
6.832000	29.524000	1130.513062	0.096250	4.410000	16.594376
19.398001	60.146000	1120.875000	2.340625	4.410000	16.594376
19.398001	60.146000	1116.300049	-0.376250	3.858750	16.620625
21.594000	52.764999	1116.300049	-0.262500	2.730000	22.793751
30.195000	29.829000	1115.079956	1.820000	2.187500	26.372499
23.851000	37.637001	1087.568970	0.205625	2.170000	30.686251
26.291000	15.433001	1103.855957	2.108750	3.228750	32.278751
19.459000	35.441002	1103.978027	3.701250	1.054375	34.868752
-2.013000	37.453999	1107.942993	0.498750	-0.647500	39.593750
11.346000	22.936001	1123.619995	2.270625	-2.209375	38.968124
13.420000	33.549999	1115.385010	1.763125	-3.101875	40.254375
17.629000	47.824001	1123.192993	0.415625	-3.132500	42.192501
29.889999	32.208000	1116.239014	2.428125	-3.320625	42.721874
20.557001	34.831001	1120.630981	-0.398125	0.686875	43.732498
30.195000	20.007999	1133.501953	-3.320625	2.463125	40.127499
27.572001	17.446001	1117.641968	-1.890000	6.090000	39.580624
0.793000	9.943000	1129.598022	-0.573125	6.803125	35.297501
5.307000	11.102000	1111.053955	0.555625	4.208750	34.361252
-3.721000	23.546000	1128.378052	-1.102500	1.050000	32.707500
4.209000	-7.686000	1125.816040	-3.946250	-3.246250	29.942499
-18.117001	-3.721000	1097.695068	-2.082500	-2.786875	25.353125
-18.177999	-11.163000	1107.454956	-0.599375	-6.440000	27.146875
-9.699000	-45.139999	1118.130005	0.118125	-4.900000	25.891251
6.466000	-16.104000	1130.940063	-0.783125	-2.699375	21.398125
13.481000	10.614000	1132.160034	-2.393125	-1.706250	20.243126
1.647000	-17.812000	1129.963989	-4.125625	-0.323750	18.055626
-26.535000	-23.607000	1138.321045	-3.325000	-0.490000	13.527500
-39.589001	-18.117001	1110.383057	-1.470000	-1.159375	10.718750
-25.010000	-9.211000	1115.994995	0.861875	-5.950000	8.045625
-14.945000	-3.599000	1104.770996	3.666250	-3.040625	4.466875
-2.684000	2.623000	1124.535034	3.876250	-2.261875	3.578750
23.424000	3.538000	1120.692017	2.887500	-6.216875	2.340625
28.121000	-6.649000	1126.853027	-2.196250	-5.280625	4.173750
33.977001	-38.674000	1116.117065	-3.241875	-4.322500	2.296875
31.232000	-29.829000	1105.990967	-2.467500	-0.380625	-2.139375
48.312000	-34.647999	1122.888062	-0.481250	-3.198125	-2.900625
52.033001	5.795000	1115.385010	3.963750	-3.399375	-8.417500
50.874001	30.805000	1106.113037	0.888125	-1.268750	-6.405000
66.734001	43.920002	1114.896973	1.400000	-3.136875	-4.252500
87.778999	54.900002	1108.919067	2.397500	-2.485000	-4.252500
91.317001	46.299000	1116.117065	2.953125	-4.221875	-2.716875
94.000999	72.590004	1125.510986	3.587500	-4.116875	-5.971875
100.100998	68.807999	1122.034058	3.596250	-1.920625	-8.338750
51.118000	78.385002	1121.302002	0.717500	3.425625	-9.830625
25.559000	82.411003	1113.188965	-1.601250	2.795625	-9.638125
21.716000	71.675003	1115.323975	-0.966875	-0.997500	-9.257500
44.957001	62.525002	1115.567993	0.818125	-4.585000	-6.685000
56.608002	97.539001	1133.318970	1.872500	-6.116250	-7.004375
65.696999	75.822998	1131.671997	0.984375	-5.385625	-7.144375
60.024002	51.545002	1119.655029	0.131250	-3.806250	-6.496875
63.135002	23.241001	1107.211060	2.804375	-3.381875	-10.648750
67.649002	48.494999	1125.633057	0.376250	-1.443750	-6.199375
36.966000	42.151001	1142.530029	-1.680000	0.083125	-7.568750
35.380001	13.542000	1135.393066	-1.255625	0.739375	-7.835625
26.413000	39.771999	1136.552002	0.087500	-0.595000	-9.590000
38.307999	24.156000	1132.281982	0.459375	-1.098125	-12.044375
43.859001	49.227001	1139.785034	-1.198750	-0.708750	-10.158750
19.459000	16.348000	1122.277954	-1.246875	2.340625	-10.386250
21.960001	3.111000	1120.082031	1.496250	1.509375	-11.672500
15.555000	27.267000	1116.300049	0.713125	0.730625	-12.915000
10.309000	0.793000	1114.225952	0.196875	0.621250	-13.838125
23.302000	19.580999	1130.086060	0.157500	-0.336875	-12.197500
28.853001	3.416000	1122.827026	-1.299375	2.130625	-9.205000
16.165001	-3.355000	1124.962036	2.126250	2.213750	-10.911250
17.323999	20.679001	1120.570068	0.783125	0.918750	-11.033750
13.176001	8.845000	1126.853027	-2.883125	0.844375	-6.991250
13.786000	8.906000	1128.134033	-1.776250	2.428125	-6.663125
5.551000	-15.311000	1114.348022	-2.800000	4.729375	-4.375000
-13.176001	-13.054000	1114.104004	-1.697500	4.943750	-6.676250
0.000000	-19.825001	1106.600952	0.135625	2.043125	-6.041875
11.590000	-8.540000	1120.082031	1.850625	0.673750	-8.010625
21.655001	-14.091001	1118.862061	0.910000	-0.450625	-8.330000
12.627000	0.610000	1123.681030	1.089375	-0.586250	-7.516250
-14.457000	24.339001	1117.458984	2.874375	4.252500	-12.477500
-9.089000	15.067000	1122.583008	1.474375	1.964375	-9.900625
11.895000	-17.323999	1117.337036	0.013125	-3.377500	-8.255625
32.757000	-30.134001	1121.729004	1.636250	-2.327500	-8.601250
20.191000	-10.065001	1127.341064	1.653750	-2.388750	-7.791875
50.630001	-25.132000	1116.848999	0.748125	-2.773750	-5.298125
47.945999	-24.400000	1111.907959	-1.238125	0.258125	-5.556250
13.664001	-28.548000	1117.458984	-0.310625	1.343125	-10.150000
14.152000	0.366000	1126.974976	1.601250	-4.501875	-9.791250
40.748001	9.577000	1123.619995	2.375625	-5.932500	-9.843750
52.094002	5.368000	1127.097046	0.783125	-2.913750	-7.468125
41.541000	2.562000	1143.750000	-1.771875	-3.346875	-4.156250
30.561001	35.136002	1143.384033	-6.825000	-3.360000	-1.771875
58.926003	2.074000	1121.484985	-12.105625	0.122500	4.116875
55.265999	-71.796997	1118.739990	-10.618125	4.226250	4.646250
34.587002	-83.752998	1101.660034	-3.714375	4.655000	-3.828125
45.628002	-56.973999	1105.136963	0.371875	-0.083125	-5.350625
46.848000	-29.646000	1102.270020	3.180625	-0.503125	-6.483750
28.548000	-24.583000	1099.708008	3.154375	1.133125	-6.890625
19.947001	-12.810000	1119.166992	1.653750	-2.301250	-4.685625
20.862000	-38.612999	1122.217041	4.003125	1.260000	-4.891250
15.494000	-8.174000	1129.415039	5.661250	1.491875	-6.116250
24.217001	-5.856000	1119.655029	5.661250	1.491875	-1.566250
24.217001	-23.912001	1126.120972	3.504375	-3.364375	-1.566250
48.739002	-23.912001	1126.120972	2.905000	-1.732500	-2.016875
49.776001	-10.858000	1116.604980	1.194375	-0.682500	0.424375
46.237999	-28.059999	1119.228027	-0.144375	0.538125	3.482500
77.104004	-25.620001	1122.583008	1.246875	-0.546875	4.156250
56.119999	-31.781000	1107.881958	0.962500	-0.192500	6.387500
60.207001	-11.529000	1122.277954	2.743125	-2.030000	6.326250
76.372002	-7.259000	1107.271973	4.213125	-0.665000	5.827500
59.658001	7.198000	1112.091064	3.220000	1.185625	7.542500
44.529999	16.775000	1116.971069	3.548125	-1.439375	8.745625
30.012001	40.809002	1111.114990	4.606875	0.030625	4.830000
46.360001	31.537001	1119.655029	3.500000	-1.623125	6.523125
63.074001	30.256001	1111.603027	5.083750	-1.833125	7.188125
57.278999	15.860001	1126.791992	4.738125	-0.336875	6.593125
59.535999	34.465000	1126.426025	5.783750	0.551250	3.915625
45.506001	66.246002	1117.337036	5.394375	1.010625	3.145625
56.242001	24.705000	1123.437012	4.226250	2.607500	7.459375
35.685001	76.067001	1122.400024	5.149375	0.533750	4.108125
55.449001	82.044998	1133.868042	3.145625	-1.133125	2.673125
58.743000	83.447998	1129.598022	3.220000	0.660625	6.304375
36.417000	69.905998	1105.625000	3.416875	6.006875	3.482500
3.538000	80.215004	1120.326050	1.890000	3.040625	2.441250
32.330002	84.362999	1130.452026	0.507500	-1.741250	0.293125
16.714001	59.963001	1120.265015	1.378125	1.176875	-0.726250
-14.518001	69.784004	1130.025024	1.500625	1.859375	-3.320625
4.209000	69.295998	1121.484985	0.783125	-0.275625	-3.272500
15.738000	74.237000	1114.896973	1.456875	0.875000	-2.878750
9.333000	57.218002	1107.454956	3.167500	0.411250	-4.396875
17.385000	82.411003	1117.885986	2.830625	-3.635625	-1.859375
25.681000	62.464001	1111.237061	4.326875	-3.933125	-1.763125
33.733002	71.431000	1115.263062	4.987500	-3.889375	-0.564375
20.557001	64.598999	1125.266968	6.558125	-3.438750	-5.293750
25.315001	79.910004	1127.584961	5.035625	-3.395000	-7.918750
22.570000	90.767998	1128.500000	3.276875	-1.951250	-3.609375
2.440000	61.000000	1122.948975	1.242500	1.159375	-2.187500
6.527000	60.756001	1131.123047	-1.159375	-0.953750	-1.763125
25.315001	55.083000	1134.905029	-0.665000	-2.419375	-2.843750
31.659000	43.371002	1118.008057	0.363125	-0.542500	-4.252500
11.468000	73.809998	1135.942017	-0.179375	1.260000	-7.231875
18.117001	69.052002	1126.609009	-1.833125	-0.100625	-5.963125
11.285000	55.144001	1126.303955	-1.693125	0.861875	-2.852500
-12.139000	49.776001	1124.596069	-0.293125	1.500625	-4.401250
14.762000	44.347000	1142.164062	0.332500	-0.332500	-0.148750
-0.122000	28.548000	1119.411011	1.150625	1.977500	-0.634375
-24.705000	-5.124000	1112.091064	-0.332500	3.666250	-1.658125
-29.889999	17.141001	1110.078003	1.933750	1.601250	0.472500
-46.604000	14.884000	1116.604980	2.988125	1.478750	0.538125
-15.982000	21.655001	1123.558960	1.548750	-1.452500	2.874375
-26.779001	29.463001	1115.873047	-0.052500	1.890000	3.517500
-29.280001	22.143000	1123.558960	-0.008750	0.564375	3.963750
-16.592001	60.938999	1120.326050	2.633750	-0.861875	0.896875
-22.997000	85.948997	1111.968994	3.819375	0.490000	0.857500
-7.442000	89.243004	1127.890015	3.045000	-0.240625	-1.006250
-5.002000	92.659004	1122.217041	1.938125	1.426250	-2.738750
-12.749001	83.752998	1130.269043	1.246875	2.835000	-4.873750
-27.328001	83.447998	1116.544067	1.063125	1.750000	-9.870000
-36.539001	97.112000	1107.333008	0.595000	1.198750	-12.258750
-7.320000	94.793999	1117.214966	0.415625	-1.548750	-12.586875
10.675000	89.669998	1124.656982	-0.507500	-1.929375	-10.683750
12.322001	81.923004	1114.165039	-0.748125	-0.577500	-12.451250
22.143000	91.317001	1117.581055	3.163125	-0.485625	-16.834999
22.936001	106.139999	1095.376953	2.830625	-0.997500	-17.766874
33.916000	103.211998	1115.629028	2.384375	-1.951250	-18.690001
42.151001	108.030998	1115.690063	2.480625	-2.918125	-18.305000
43.066002	103.578003	1128.255981	1.076250	-4.007500	-14.367500
51.545002	91.195000	1129.842041	0.568750	-1.277500	-13.702500
33.793999	94.611000	1119.411011	0.424375	0.840000	-12.600000
18.544001	76.494003	1124.046997	1.684375	1.216250	-12.442500
17.812000	87.961998	1119.349976	3.325000	-1.369375	-14.962500
24.948999	116.632004	1122.094971	2.051875	-2.835000	-17.928749
51.850002	102.480003	1118.251953	-0.980000	-2.288125	-14.315000
29.707001	71.858002	1121.363037	-2.191875	0.078750	-12.608750
29.402000	53.802002	1116.544067	-0.205625	0.608125	-10.189375
33.977001	53.313999	1108.065063	6.033125	0.918750	-5.897500
17.812000	66.124001	1108.369995	8.675625	2.288125	-4.550000
0.732000	84.973000	1101.843018	4.571875	0.341250	-3.530625
7.747000	71.918999	1121.363037	2.283750	-0.853125	-0.271250
11.529000	82.716003	1130.635010	2.222500	-2.279375	2.428125
6.588000	75.091003	1123.192993	-0.188125	-3.736250	6.785625
5.490000	60.024002	1147.348999	2.485000	-6.173125	9.603125
14.091001	82.411003	1140.516968	5.726875	-4.690000	10.679375
22.264999	90.219002	1118.435059	3.548125	-3.206875	9.944375
39.040001	97.783005	1115.812012	2.021250	-1.041250	6.011250
29.707001	85.034004	1109.162964	0.853125	-1.325625	9.047500
29.280001	50.874001	1094.462036	-1.172500	0.328125	13.116250
18.239000	47.945999	1101.110962	-1.491875	1.264375	12.814375
24.583000	61.000000	1099.586060	-0.511875	-1.198750	12.967500
45.323002	42.090000	1117.581055	-1.649375	-4.624375	14.581875
51.423000	40.748001	1126.487061	-2.371250	-3.924375	16.030001
31.476000	54.778000	1113.615967	-3.093125	1.754375	14.201250
3.721000	32.513000	1132.953003	-3.228750	3.351250	12.888750
4.880000	51.056999	1121.607056	-1.522500	-1.986250	11.987500
18.666000	38.247002	1115.385010	-1.500625	-1.859375	14.122500
7.381000	38.552002	1109.162964	-0.822500	-0.958125	16.454374
13.237000	14.457000	1126.303955	-3.241875	-2.826250	17.688126
19.215000	-4.392000	1129.292969	-4.064375	-2.113125	18.729376
1.586000	-0.671000	1128.011963	-4.064375	-2.113125	19.840626
1.586000	8.113000	1126.547974	-3.591875	-3.705625	19.840626
8.235000	8.113000	1126.547974	-6.107500	-3.858750	20.597500
5.002000	29.219000	1120.997070	-6.199375	-1.859375	18.506250
-3.599000	50.691002	1140.883057	-3.583125	-3.495625	15.911875
11.346000	48.678001	1121.180054	-3.053750	-2.708125	13.457500
10.126000	50.507999	1130.269043	-5.477500	-0.490000	11.803750
-5.734000	41.663002	1124.412964	-2.668750	-0.634375	8.544375
-10.919000	48.373001	1132.098999	0.433125	-2.078125	9.012500
11.285000	48.312000	1132.037964	-1.185625	-2.887500	7.791875
13.420000	21.655001	1133.989990	-0.476875	-0.380625	5.162500
13.786000	28.487000	1141.005005	1.540000	0.415625	1.855000
23.241001	42.577999	1133.075073	0.538125	2.270625	-2.480625
7.564000	33.977001	1129.354004	-0.800625	3.893750	-5.696250
20.007999	35.501999	1132.953003	1.050000	1.435000	-6.720000
9.333000	44.834999	1120.143066	2.336250	3.863125	-5.919375
5.368000	45.506001	1128.072998	2.786875	3.338125	-4.908750
15.982000	57.096001	1131.123047	5.678750	-0.039375	-5.713750
21.410999	74.419998	1115.202026	4.628750	2.384375	-7.323750
15.799000	69.417999	1111.297974	1.351875	3.578750	-8.045625
